# File: 20-11-28T181051.hot
# NOTEA     = RSP1A+GPIOLabs Pi #1 On Horn
# NOTEB     = Sdrplay 8 MHz Test
# OBSERVER  = Science Aficionado
# DEVICE    = SDRPlay RSP1A
# DATADIR   = ../data/
# SITE      = RSP1A+GPIOLabs Pi #1 On Horn
# CITY      = Green Bank
# REGION    = West Virginia
# COUNTRY   = US
# TELTYPE   = Bubble Wrap  Horn
# FRAME     = TOPO
# GAIN1     = 0.0
# GAIN2     = 12.0
# GAIN3     = 12.0
# GAIN4     = 0.0
# Count     = 360000
# CenterFreq= 1422000000.0
# Bandwidth = 8000000.0
# Duration  = 157.443649
# DeltaX    = 5859.375
# TSYS      = 200.0
# TRX       = 100.0
# TRMS      = 2.0
# TINT      = 1.0
# KPERC     = 100.0
# GAINFACT  = 1.0
# BUNIT     = Counts
# NCHAN     = 2048
# NSPEC     = 1
# NTIME     = 0
# NSAMPLES  = 0
# EPEAK     = 4.10875183718
# ERMS      = 0.995973393526
# EMJD      = 58568.808999981004 
# REFCHAN   = 1024.0
# REFSAMPL  = 256.0
# NAVE      = 600
# NMEDIAN   = 1024
# Fft_rate  = 5000
# UTC       = 2020-11-28 18:10:51.914809
# SECONDS   =       0.0000000000 
# LST       = 17:23:54.100
# AZ        = 180.0
# EL        = -40.0
# TELLON    = -79:50:22.920
# TELLAT    = +38:25:59.160
# RA        = 05:54:51.600
# DEC       = -88:27:20.600
# GALLON    = 301:14:37.50
# GALLAT    = -27:29:43.90
# ALT_SUN   = +28:18:26.5
# AZ_SUN    = +196:45:10.5
# ETAA      = 0.8
# ETAB      = 0.99
# POLANGLE  = 0.0
# TELSIZEAM = 1.0
# TELSIZEBM = 1.0
# AST_VERS  = 05.01
0000 1418001953 0.8437
0001 1418005859 0.8441
0002 1418009765 0.8427
0003 1418013671 0.8425
0004 1418017578 0.8474
0005 1418021484 0.8501
0006 1418025390 0.8491
0007 1418029296 0.8553
0008 1418033203 0.8556
0009 1418037109 0.8574
0010 1418041015 0.8591
0011 1418044921 0.8630
0012 1418048828 0.8641
0013 1418052734 0.8675
0014 1418056640 0.8709
0015 1418060546 0.8702
0016 1418064453 0.8715
0017 1418068359 0.8701
0018 1418072265 0.8719
0019 1418076171 0.8699
0020 1418080078 0.8694
0021 1418083984 0.8617
0022 1418087890 0.8577
0023 1418091796 0.8535
0024 1418095703 0.8476
0025 1418099609 0.8344
0026 1418103515 0.8276
0027 1418107421 0.8162
0028 1418111328 0.8060
0029 1418115234 0.7863
0030 1418119140 0.7683
0031 1418123046 0.7496
0032 1418126953 0.7264
0033 1418130859 0.6977
0034 1418134765 0.6715
0035 1418138671 0.6458
0036 1418142578 0.6153
0037 1418146484 0.5776
0038 1418150390 0.5432
0039 1418154296 0.5049
0040 1418158203 0.4636
0041 1418162109 0.4251
0042 1418166015 0.3815
0043 1418169921 0.3395
0044 1418173828 0.2953
0045 1418177734 0.2515
0046 1418181640 0.2108
0047 1418185546 0.1706
0048 1418189453 0.1337
0049 1418193359 0.1005
0050 1418197265 0.0723
0051 1418201171 0.0505
0052 1418205078 0.0370
0053 1418208984 0.0329
0054 1418212890 0.0404
0055 1418216796 0.0616
0056 1418220703 0.0983
0057 1418224609 0.1539
0058 1418228515 0.2305
0059 1418232421 0.3319
0060 1418236328 0.4602
0061 1418240234 0.6183
0062 1418244140 0.8119
0063 1418248046 1.0397
0064 1418251953 1.3140
0065 1418255859 1.6408
0066 1418259765 2.0134
0067 1418263671 2.4380
0068 1418267578 2.9341
0069 1418271484 3.4878
0070 1418275390 4.1414
0071 1418279296 4.8412
0072 1418283203 5.6381
0073 1418287109 6.5448
0074 1418291015 7.5405
0075 1418294921 8.6528
0076 1418298828 9.8529
0077 1418302734 11.2443
0078 1418306640 12.7378
0079 1418310546 14.3447
0080 1418314453 16.1571
0081 1418318359 18.0500
0082 1418322265 20.0874
0083 1418326171 22.3144
0084 1418330078 24.9013
0085 1418333984 27.4849
0086 1418337890 30.3560
0087 1418341796 33.4481
0088 1418345703 36.6614
0089 1418349609 40.2862
0090 1418353515 44.0645
0091 1418357421 48.1355
0092 1418361328 52.1035
0093 1418365234 56.7267
0094 1418369140 61.5007
0095 1418373046 66.8043
0096 1418376953 71.8354
0097 1418380859 77.7045
0098 1418384765 83.9146
0099 1418388671 90.3202
0100 1418392578 97.2663
0101 1418396484 103.8977
0102 1418400390 111.3956
0103 1418404296 118.6399
0104 1418408203 127.0759
0105 1418412109 135.2569
0106 1418416015 143.5102
0107 1418419921 152.5396
0108 1418423828 161.7045
0109 1418427734 171.2755
0110 1418431640 181.9406
0111 1418435546 193.2398
0112 1418439453 203.4738
0113 1418443359 214.1069
0114 1418447265 226.0318
0115 1418451171 236.9881
0116 1418455078 249.6068
0117 1418458984 262.1530
0118 1418462890 274.0394
0119 1418466796 288.2993
0120 1418470703 300.9753
0121 1418474609 315.7078
0122 1418478515 329.2962
0123 1418482421 345.5753
0124 1418486328 360.1576
0125 1418490234 373.5155
0126 1418494140 386.8013
0127 1418498046 402.5726
0128 1418501953 420.3606
0129 1418505859 434.2754
0130 1418509765 451.8367
0131 1418513671 466.2158
0132 1418517578 484.4043
0133 1418521484 498.8431
0134 1418525390 517.0779
0135 1418529296 532.8765
0136 1418533203 547.3934
0137 1418537109 563.5685
0138 1418541015 583.4341
0139 1418544921 601.0273
0140 1418548828 615.2129
0141 1418552734 632.2883
0142 1418556640 647.2593
0143 1418560546 664.4515
0144 1418564453 680.7730
0145 1418568359 697.7358
0146 1418572265 713.2368
0147 1418576171 728.5450
0148 1418580078 745.3954
0149 1418583984 760.3273
0150 1418587890 774.7002
0151 1418591796 792.4224
0152 1418595703 806.5001
0153 1418599609 822.1049
0154 1418603515 838.3625
0155 1418607421 855.0444
0156 1418611328 865.2895
0157 1418615234 881.1335
0158 1418619140 895.2802
0159 1418623046 905.4357
0160 1418626953 917.8718
0161 1418630859 933.5964
0162 1418634765 943.7518
0163 1418638671 957.6244
0164 1418642578 972.2601
0165 1418646484 981.0699
0166 1418650390 989.4518
0167 1418654296 1002.6385
0168 1418658203 1010.6825
0169 1418662109 1022.4030
0170 1418666015 1031.1555
0171 1418669921 1039.2308
0172 1418673828 1046.5247
0173 1418677734 1055.4963
0174 1418681640 1064.8306
0175 1418685546 1069.3530
0176 1418689453 1077.3667
0177 1418693359 1082.7542
0178 1418697265 1092.4122
0179 1418701171 1096.3179
0180 1418705078 1102.2156
0181 1418708984 1105.9020
0182 1418712890 1115.1658
0183 1418716796 1116.2020
0184 1418720703 1120.2120
0185 1418724609 1120.9440
0186 1418728515 1115.8307
0187 1418732421 1125.3512
0188 1418736328 1128.0823
0189 1418740234 1129.1997
0190 1418744140 1131.1396
0191 1418748046 1131.0573
0192 1418751953 1135.9493
0193 1418755859 1134.7181
0194 1418759765 1134.1877
0195 1418763671 1139.0071
0196 1418767578 1135.5488
0197 1418771484 1135.5587
0198 1418775390 1135.3821
0199 1418779296 1128.1602
0200 1418783203 1129.1414
0201 1418787109 1128.9904
0202 1418791015 1128.6503
0203 1418794921 1126.1279
0204 1418798828 1126.2097
0205 1418802734 1121.8104
0206 1418806640 1122.8982
0207 1418810546 1118.7511
0208 1418814453 1114.3026
0209 1418818359 1121.0573
0210 1418822265 1115.2766
0211 1418826171 1109.1761
0212 1418830078 1102.9243
0213 1418833984 1103.3876
0214 1418837890 1100.4935
0215 1418841796 1094.2001
0216 1418845703 1094.7968
0217 1418849609 1093.6997
0218 1418853515 1090.2754
0219 1418857421 1084.1910
0220 1418861328 1080.0096
0221 1418865234 1075.7047
0222 1418869140 1076.1761
0223 1418873046 1070.8917
0224 1418876953 1068.8037
0225 1418880859 1067.2056
0226 1418884765 1062.7592
0227 1418888671 1057.0510
0228 1418892578 1056.7794
0229 1418896484 1050.8644
0230 1418900390 1049.5314
0231 1418904296 1050.9827
0232 1418908203 1045.6462
0233 1418912109 1040.9951
0234 1418916015 1038.8976
0235 1418919921 1036.7648
0236 1418923828 1029.3635
0237 1418927734 1027.3856
0238 1418931640 1024.7870
0239 1418935546 1026.0132
0240 1418939453 1025.1091
0241 1418943359 1021.9664
0242 1418947265 1021.7405
0243 1418951171 1019.5310
0244 1418955078 1016.3293
0245 1418958984 1009.4999
0246 1418962890 1016.1482
0247 1418966796 1012.5244
0248 1418970703 1012.4415
0249 1418974609 1008.1157
0250 1418978515 1010.9728
0251 1418982421 1004.1018
0252 1418986328 999.9844
0253 1418990234 1003.6456
0254 1418994140 998.8798
0255 1418998046 999.3787
0256 1419001953 999.5296
0257 1419005859 998.6126
0258 1419009765 998.3685
0259 1419013671 997.0624
0260 1419017578 997.6288
0261 1419021484 997.0148
0262 1419025390 997.9385
0263 1419029296 1002.3349
0264 1419033203 998.7365
0265 1419037109 998.9128
0266 1419041015 993.9221
0267 1419044921 999.2445
0268 1419048828 996.7222
0269 1419052734 993.8624
0270 1419056640 996.8026
0271 1419060546 996.5981
0272 1419064453 1001.1588
0273 1419068359 1001.4423
0274 1419072265 1003.1294
0275 1419076171 1004.0771
0276 1419080078 1001.0602
0277 1419083984 1007.2325
0278 1419087890 1005.2928
0279 1419091796 1005.8986
0280 1419095703 1008.2753
0281 1419099609 1005.5075
0282 1419103515 1008.1727
0283 1419107421 1010.9377
0284 1419111328 1014.8745
0285 1419115234 1014.3932
0286 1419119140 1018.0050
0287 1419123046 1018.9410
0288 1419126953 1017.7052
0289 1419130859 1018.5466
0290 1419134765 1017.3208
0291 1419138671 1020.9404
0292 1419142578 1022.8400
0293 1419146484 1021.9706
0294 1419150390 1023.9052
0295 1419154296 1028.3375
0296 1419158203 1028.3630
0297 1419162109 1028.8716
0298 1419166015 1030.2382
0299 1419169921 1032.4346
0300 1419173828 1035.6230
0301 1419177734 1035.4198
0302 1419181640 1038.6077
0303 1419185546 1039.7328
0304 1419189453 1037.8491
0305 1419193359 1041.6575
0306 1419197265 1038.2362
0307 1419201171 1042.5651
0308 1419205078 1046.6294
0309 1419208984 1049.7858
0310 1419212890 1044.1002
0311 1419216796 1044.7631
0312 1419220703 1047.8600
0313 1419224609 1050.8975
0314 1419228515 1054.8173
0315 1419232421 1051.3589
0316 1419236328 1053.0294
0317 1419240234 1054.1337
0318 1419244140 1056.8868
0319 1419248046 1057.4113
0320 1419251953 1056.5839
0321 1419255859 1057.9709
0322 1419259765 1057.6571
0323 1419263671 1057.2289
0324 1419267578 1058.1628
0325 1419271484 1057.6390
0326 1419275390 1063.6195
0327 1419279296 1067.9951
0328 1419283203 1064.4205
0329 1419287109 1064.0771
0330 1419291015 1064.7585
0331 1419294921 1064.1732
0332 1419298828 1065.6251
0333 1419302734 1059.1458
0334 1419306640 1063.8408
0335 1419310546 1067.8757
0336 1419314453 1071.6534
0337 1419318359 1072.1100
0338 1419322265 1071.9661
0339 1419326171 1069.8300
0340 1419330078 1071.9596
0341 1419333984 1070.5585
0342 1419337890 1073.4471
0343 1419341796 1071.7357
0344 1419345703 1071.2065
0345 1419349609 1070.6472
0346 1419353515 1072.6674
0347 1419357421 1072.0852
0348 1419361328 1079.0425
0349 1419365234 1075.5643
0350 1419369140 1072.7222
0351 1419373046 1075.6897
0352 1419376953 1073.8907
0353 1419380859 1072.8041
0354 1419384765 1077.0985
0355 1419388671 1073.3690
0356 1419392578 1070.7776
0357 1419396484 1074.3165
0358 1419400390 1078.5966
0359 1419404296 1076.2695
0360 1419408203 1074.2706
0361 1419412109 1079.6785
0362 1419416015 1073.4913
0363 1419419921 1076.5762
0364 1419423828 1073.0546
0365 1419427734 1074.0997
0366 1419431640 1076.9424
0367 1419435546 1078.4913
0368 1419439453 1076.4811
0369 1419443359 1075.4899
0370 1419447265 1080.6675
0371 1419451171 1073.5206
0372 1419455078 1075.9988
0373 1419458984 1075.0618
0374 1419462890 1074.9498
0375 1419466796 1079.6400
0376 1419470703 1073.7885
0377 1419474609 1077.6488
0378 1419478515 1074.2622
0379 1419482421 1077.1320
0380 1419486328 1081.2920
0381 1419490234 1080.4149
0382 1419494140 1076.6646
0383 1419498046 1078.4808
0384 1419501953 1080.6019
0385 1419505859 1078.1497
0386 1419509765 1081.6003
0387 1419513671 1079.3782
0388 1419517578 1076.9451
0389 1419521484 1077.8092
0390 1419525390 1075.9330
0391 1419529296 1082.0197
0392 1419533203 1082.1625
0393 1419537109 1079.6971
0394 1419541015 1078.4673
0395 1419544921 1078.8534
0396 1419548828 1078.3690
0397 1419552734 1080.2581
0398 1419556640 1083.5651
0399 1419560546 1077.3199
0400 1419564453 1081.1920
0401 1419568359 1077.5692
0402 1419572265 1082.3918
0403 1419576171 1077.5477
0404 1419580078 1080.1965
0405 1419583984 1077.4994
0406 1419587890 1080.8051
0407 1419591796 1079.2118
0408 1419595703 1076.3608
0409 1419599609 1082.1731
0410 1419603515 1080.5260
0411 1419607421 1084.5070
0412 1419611328 1078.6217
0413 1419615234 1076.5117
0414 1419619140 1079.9265
0415 1419623046 1079.9462
0416 1419626953 1072.8279
0417 1419630859 1076.3390
0418 1419634765 1080.0270
0419 1419638671 1077.6622
0420 1419642578 1076.0293
0421 1419646484 1076.8016
0422 1419650390 1079.4128
0423 1419654296 1074.8374
0424 1419658203 1077.6711
0425 1419662109 1076.0747
0426 1419666015 1074.8115
0427 1419669921 1071.2723
0428 1419673828 1075.5940
0429 1419677734 1076.2373
0430 1419681640 1073.9734
0431 1419685546 1074.0321
0432 1419689453 1067.3882
0433 1419693359 1069.3396
0434 1419697265 1071.0682
0435 1419701171 1069.7454
0436 1419705078 1067.2935
0437 1419708984 1068.2629
0438 1419712890 1065.9957
0439 1419716796 1059.8553
0440 1419720703 1063.7924
0441 1419724609 1063.1443
0442 1419728515 1063.1176
0443 1419732421 1060.3955
0444 1419736328 1059.5928
0445 1419740234 1060.1859
0446 1419744140 1058.5255
0447 1419748046 1061.2769
0448 1419751953 1056.7168
0449 1419755859 1058.4188
0450 1419759765 1056.0011
0451 1419763671 1051.3208
0452 1419767578 1056.0085
0453 1419771484 1055.5857
0454 1419775390 1054.7753
0455 1419779296 1050.5657
0456 1419783203 1053.4971
0457 1419787109 1049.2629
0458 1419791015 1046.9290
0459 1419794921 1046.7501
0460 1419798828 1045.3318
0461 1419802734 1044.0804
0462 1419806640 1043.2721
0463 1419810546 1043.5164
0464 1419814453 1042.0526
0465 1419818359 1049.4691
0466 1419822265 1041.0107
0467 1419826171 1038.6210
0468 1419830078 1035.1984
0469 1419833984 1037.3405
0470 1419837890 1038.1038
0471 1419841796 1031.7035
0472 1419845703 1030.8276
0473 1419849609 1032.5994
0474 1419853515 1032.7682
0475 1419857421 1033.6224
0476 1419861328 1033.2728
0477 1419865234 1033.4086
0478 1419869140 1032.4314
0479 1419873046 1033.0245
0480 1419876953 1030.5149
0481 1419880859 1029.3136
0482 1419884765 1024.5345
0483 1419888671 1029.5179
0484 1419892578 1026.6338
0485 1419896484 1028.2983
0486 1419900390 1024.6761
0487 1419904296 1022.1973
0488 1419908203 1023.1411
0489 1419912109 1025.8180
0490 1419916015 1021.4134
0491 1419919921 1023.9329
0492 1419923828 1017.2899
0493 1419927734 1021.3871
0494 1419931640 1020.3269
0495 1419935546 1022.4252
0496 1419939453 1018.5169
0497 1419943359 1016.5405
0498 1419947265 1019.4550
0499 1419951171 1020.7410
0500 1419955078 1020.7952
0501 1419958984 1017.8284
0502 1419962890 1015.7613
0503 1419966796 1016.2293
0504 1419970703 1017.7597
0505 1419974609 1017.7708
0506 1419978515 1014.5746
0507 1419982421 1017.3291
0508 1419986328 1016.0796
0509 1419990234 1015.4402
0510 1419994140 1018.4054
0511 1419998046 1021.8054
0512 1420001953 1016.7372
0513 1420005859 1015.2394
0514 1420009765 1016.6965
0515 1420013671 1020.4202
0516 1420017578 1016.6052
0517 1420021484 1018.8800
0518 1420025390 1015.7395
0519 1420029296 1016.4180
0520 1420033203 1017.8785
0521 1420037109 1017.0219
0522 1420041015 1016.9159
0523 1420044921 1020.8407
0524 1420048828 1017.0546
0525 1420052734 1018.6299
0526 1420056640 1021.6901
0527 1420060546 1021.1535
0528 1420064453 1017.4750
0529 1420068359 1021.9586
0530 1420072265 1018.4227
0531 1420076171 1023.5466
0532 1420080078 1021.3215
0533 1420083984 1018.2002
0534 1420087890 1021.3563
0535 1420091796 1024.8969
0536 1420095703 1019.9888
0537 1420099609 1020.3582
0538 1420103515 1020.6063
0539 1420107421 1021.5320
0540 1420111328 1024.8984
0541 1420115234 1022.8204
0542 1420119140 1026.0984
0543 1420123046 1025.6606
0544 1420126953 1028.7180
0545 1420130859 1022.1018
0546 1420134765 1017.5604
0547 1420138671 1023.9027
0548 1420142578 1022.9272
0549 1420146484 1019.0800
0550 1420150390 1016.7854
0551 1420154296 1017.6520
0552 1420158203 1021.0714
0553 1420162109 1021.7268
0554 1420166015 1020.2277
0555 1420169921 1020.5519
0556 1420173828 1018.7603
0557 1420177734 1019.9408
0558 1420181640 1020.1840
0559 1420185546 1017.1105
0560 1420189453 1018.9332
0561 1420193359 1020.0684
0562 1420197265 1018.5843
0563 1420201171 1017.1880
0564 1420205078 1020.3913
0565 1420208984 1016.0230
0566 1420212890 1018.5181
0567 1420216796 1018.3146
0568 1420220703 1017.3118
0569 1420224609 1012.6113
0570 1420228515 1016.5438
0571 1420232421 1010.1714
0572 1420236328 1013.2724
0573 1420240234 1011.9789
0574 1420244140 1016.8300
0575 1420248046 1012.3070
0576 1420251953 1015.7325
0577 1420255859 1011.4230
0578 1420259765 1012.1537
0579 1420263671 1011.6468
0580 1420267578 1008.2585
0581 1420271484 1013.6739
0582 1420275390 1012.3271
0583 1420279296 1010.7283
0584 1420283203 1008.9064
0585 1420287109 1011.0397
0586 1420291015 1007.2842
0587 1420294921 1004.9359
0588 1420298828 1004.1284
0589 1420302734 1005.0201
0590 1420306640 1002.7047
0591 1420310546 1005.0569
0592 1420314453 1001.3948
0593 1420318359 1005.3216
0594 1420322265 1005.9419
0595 1420326171 1002.2796
0596 1420330078 1004.1957
0597 1420333984 998.7578
0598 1420337890 1000.8997
0599 1420341796 998.9105
0600 1420345703 999.7963
0601 1420349609 1003.2550
0602 1420353515 1001.6942
0603 1420357421 1003.0494
0604 1420361328 1002.7158
0605 1420365234 1002.2062
0606 1420369140 998.2798
0607 1420373046 996.6464
0608 1420376953 995.2841
0609 1420380859 995.3301
0610 1420384765 994.7222
0611 1420388671 993.0677
0612 1420392578 994.8587
0613 1420396484 997.7943
0614 1420400390 992.0806
0615 1420404296 990.8419
0616 1420408203 992.9240
0617 1420412109 991.4515
0618 1420416015 990.5952
0619 1420419921 989.2494
0620 1420423828 989.8693
0621 1420427734 989.9452
0622 1420431640 986.8845
0623 1420435546 989.5731
0624 1420439453 983.0579
0625 1420443359 984.7714
0626 1420447265 989.8359
0627 1420451171 986.5482
0628 1420455078 982.8831
0629 1420458984 984.1006
0630 1420462890 982.2755
0631 1420466796 985.4546
0632 1420470703 985.2486
0633 1420474609 986.4961
0634 1420478515 985.8942
0635 1420482421 984.1561
0636 1420486328 980.5829
0637 1420490234 979.7211
0638 1420494140 986.0557
0639 1420498046 985.7134
0640 1420501953 984.6492
0641 1420505859 980.4781
0642 1420509765 985.1139
0643 1420513671 984.8314
0644 1420517578 986.9653
0645 1420521484 985.8729
0646 1420525390 988.4153
0647 1420529296 985.3795
0648 1420533203 980.4987
0649 1420537109 981.9038
0650 1420541015 984.9439
0651 1420544921 984.3177
0652 1420548828 987.3473
0653 1420552734 983.2181
0654 1420556640 984.6426
0655 1420560546 986.1100
0656 1420564453 989.1306
0657 1420568359 986.9780
0658 1420572265 985.1012
0659 1420576171 992.1149
0660 1420580078 985.2159
0661 1420583984 981.5837
0662 1420587890 987.3792
0663 1420591796 986.0530
0664 1420595703 984.5634
0665 1420599609 985.7280
0666 1420603515 988.9313
0667 1420607421 981.3372
0668 1420611328 986.8107
0669 1420615234 988.9582
0670 1420619140 987.7011
0671 1420623046 983.4495
0672 1420626953 982.2388
0673 1420630859 982.1556
0674 1420634765 981.8572
0675 1420638671 986.9933
0676 1420642578 986.2673
0677 1420646484 984.6710
0678 1420650390 984.8463
0679 1420654296 984.7485
0680 1420658203 985.9076
0681 1420662109 987.1718
0682 1420666015 983.8759
0683 1420669921 983.1078
0684 1420673828 983.5117
0685 1420677734 980.4891
0686 1420681640 979.7527
0687 1420685546 981.6544
0688 1420689453 981.4993
0689 1420693359 980.7523
0690 1420697265 982.2851
0691 1420701171 984.3414
0692 1420705078 979.5380
0693 1420708984 979.8004
0694 1420712890 980.4834
0695 1420716796 980.9354
0696 1420720703 978.7010
0697 1420724609 981.9916
0698 1420728515 980.4634
0699 1420732421 975.1183
0700 1420736328 978.2518
0701 1420740234 976.5671
0702 1420744140 975.0811
0703 1420748046 978.0482
0704 1420751953 973.0131
0705 1420755859 973.6379
0706 1420759765 976.0112
0707 1420763671 969.5738
0708 1420767578 973.3796
0709 1420771484 972.3600
0710 1420775390 968.4126
0711 1420779296 970.1342
0712 1420783203 970.8016
0713 1420787109 971.4269
0714 1420791015 967.7875
0715 1420794921 966.6661
0716 1420798828 971.4607
0717 1420802734 969.8459
0718 1420806640 968.7151
0719 1420810546 965.2495
0720 1420814453 965.8052
0721 1420818359 963.9187
0722 1420822265 968.1919
0723 1420826171 965.8136
0724 1420830078 968.7213
0725 1420833984 966.6946
0726 1420837890 959.0377
0727 1420841796 959.4345
0728 1420845703 965.8993
0729 1420849609 959.8495
0730 1420853515 965.0032
0731 1420857421 964.4559
0732 1420861328 968.3079
0733 1420865234 964.0278
