# File: 20-11-28T182358.hot
# NOTEA     = RSP1A+GPIOLabs Pi #1 On Horn
# NOTEB     = Sdrplay 8 MHz Test
# OBSERVER  = Science Aficionado
# DEVICE    = SDRPlay RSP1A
# DATADIR   = ../data/
# SITE      = RSP1A+GPIOLabs Pi #1 On Horn
# CITY      = Green Bank
# REGION    = West Virginia
# COUNTRY   = US
# TELTYPE   = Bubble Wrap  Horn
# FRAME     = TOPO
# GAIN1     = 0.0
# GAIN2     = 12.0
# GAIN3     = 12.0
# GAIN4     = 0.0
# Count     = 360000
# CenterFreq= 1422000000.0
# Bandwidth = 8000000.0
# Duration  = 157.290318
# DeltaX    = 5859.375
# TSYS      = 200.0
# TRX       = 100.0
# TRMS      = 2.0
# TINT      = 1.0
# KPERC     = 100.0
# GAINFACT  = 1.0
# BUNIT     = Counts
# NCHAN     = 2048
# NSPEC     = 1
# NTIME     = 0
# NSAMPLES  = 0
# EPEAK     = 4.10875183718
# ERMS      = 0.995973393526
# EMJD      = 58568.808999981004 
# REFCHAN   = 1024.0
# REFSAMPL  = 256.0
# NAVE      = 600
# NMEDIAN   = 1024
# Fft_rate  = 5000
# UTC       = 2020-11-28 18:23:58.269604
# SECONDS   =       0.0000000000 
# LST       = 17:37:02.600
# AZ        = 180.0
# EL        = -40.0
# TELLON    = -79:50:22.920
# TELLAT    = +38:25:59.160
# RA        = 06:08:00.030
# DEC       = -88:26:34.100
# GALLON    = 301:12:32.90
# GALLAT    = -27:24:40.00
# ALT_SUN   = +27:29:46.2
# AZ_SUN    = +200:04:36.4
# ETAA      = 0.8
# ETAB      = 0.99
# POLANGLE  = 0.0
# TELSIZEAM = 1.0
# TELSIZEBM = 1.0
# AST_VERS  = 05.01
0000 1418001953 0.8426
0001 1418005859 0.8469
0002 1418009765 0.8416
0003 1418013671 0.8495
0004 1418017578 0.8451
0005 1418021484 0.8483
0006 1418025390 0.8531
0007 1418029296 0.8534
0008 1418033203 0.8551
0009 1418037109 0.8608
0010 1418041015 0.8632
0011 1418044921 0.8670
0012 1418048828 0.8674
0013 1418052734 0.8644
0014 1418056640 0.8702
0015 1418060546 0.8723
0016 1418064453 0.8686
0017 1418068359 0.8708
0018 1418072265 0.8720
0019 1418076171 0.8687
0020 1418080078 0.8639
0021 1418083984 0.8642
0022 1418087890 0.8598
0023 1418091796 0.8551
0024 1418095703 0.8493
0025 1418099609 0.8432
0026 1418103515 0.8304
0027 1418107421 0.8159
0028 1418111328 0.8023
0029 1418115234 0.7856
0030 1418119140 0.7692
0031 1418123046 0.7476
0032 1418126953 0.7270
0033 1418130859 0.7024
0034 1418134765 0.6800
0035 1418138671 0.6475
0036 1418142578 0.6120
0037 1418146484 0.5800
0038 1418150390 0.5462
0039 1418154296 0.5050
0040 1418158203 0.4657
0041 1418162109 0.4246
0042 1418166015 0.3838
0043 1418169921 0.3383
0044 1418173828 0.2953
0045 1418177734 0.2544
0046 1418181640 0.2113
0047 1418185546 0.1712
0048 1418189453 0.1334
0049 1418193359 0.1004
0050 1418197265 0.0721
0051 1418201171 0.0504
0052 1418205078 0.0370
0053 1418208984 0.0329
0054 1418212890 0.0404
0055 1418216796 0.0615
0056 1418220703 0.0987
0057 1418224609 0.1541
0058 1418228515 0.2308
0059 1418232421 0.3324
0060 1418236328 0.4581
0061 1418240234 0.6178
0062 1418244140 0.8111
0063 1418248046 1.0404
0064 1418251953 1.3157
0065 1418255859 1.6420
0066 1418259765 2.0135
0067 1418263671 2.4393
0068 1418267578 2.9293
0069 1418271484 3.4888
0070 1418275390 4.1095
0071 1418279296 4.8456
0072 1418283203 5.6483
0073 1418287109 6.5089
0074 1418291015 7.5293
0075 1418294921 8.6530
0076 1418298828 9.9060
0077 1418302734 11.2373
0078 1418306640 12.6602
0079 1418310546 14.2832
0080 1418314453 16.1142
0081 1418318359 18.0304
0082 1418322265 20.1707
0083 1418326171 22.4714
0084 1418330078 24.7803
0085 1418333984 27.4915
0086 1418337890 30.3440
0087 1418341796 33.4102
0088 1418345703 36.5526
0089 1418349609 40.4019
0090 1418353515 44.0518
0091 1418357421 47.9588
0092 1418361328 52.1805
0093 1418365234 56.7127
0094 1418369140 61.7591
0095 1418373046 66.8229
0096 1418376953 72.3334
0097 1418380859 77.9006
0098 1418384765 84.0758
0099 1418388671 90.1538
0100 1418392578 96.7533
0101 1418396484 103.2130
0102 1418400390 111.3592
0103 1418404296 118.9318
0104 1418408203 126.6672
0105 1418412109 135.1968
0106 1418416015 143.9037
0107 1418419921 152.8085
0108 1418423828 162.0040
0109 1418427734 171.0777
0110 1418431640 181.5252
0111 1418435546 192.4402
0112 1418439453 203.8860
0113 1418443359 214.3447
0114 1418447265 225.7838
0115 1418451171 238.4714
0116 1418455078 249.6914
0117 1418458984 262.2204
0118 1418462890 275.2436
0119 1418466796 288.7991
0120 1418470703 300.9763
0121 1418474609 315.5406
0122 1418478515 329.4667
0123 1418482421 344.1112
0124 1418486328 358.2619
0125 1418490234 372.7386
0126 1418494140 389.7064
0127 1418498046 405.7775
0128 1418501953 418.7509
0129 1418505859 433.5630
0130 1418509765 450.2839
0131 1418513671 467.5730
0132 1418517578 481.7969
0133 1418521484 498.5786
0134 1418525390 514.4993
0135 1418529296 531.1049
0136 1418533203 547.6908
0137 1418537109 565.6522
0138 1418541015 580.8134
0139 1418544921 599.3706
0140 1418548828 614.2060
0141 1418552734 630.4598
0142 1418556640 649.7642
0143 1418560546 664.6893
0144 1418564453 682.2314
0145 1418568359 697.7556
0146 1418572265 714.1177
0147 1418576171 734.9795
0148 1418580078 747.7009
0149 1418583984 762.7845
0150 1418587890 775.8979
0151 1418591796 790.5782
0152 1418595703 809.5329
0153 1418599609 823.3253
0154 1418603515 838.5641
0155 1418607421 850.0714
0156 1418611328 862.1494
0157 1418615234 875.9575
0158 1418619140 895.9812
0159 1418623046 904.3122
0160 1418626953 922.6252
0161 1418630859 933.1774
0162 1418634765 940.2635
0163 1418638671 956.9965
0164 1418642578 971.6019
0165 1418646484 983.8062
0166 1418650390 987.0994
0167 1418654296 1001.1909
0168 1418658203 1008.0339
0169 1418662109 1015.0316
0170 1418666015 1025.4349
0171 1418669921 1040.0153
0172 1418673828 1049.8198
0173 1418677734 1055.4641
0174 1418681640 1063.0482
0175 1418685546 1073.1698
0176 1418689453 1075.2504
0177 1418693359 1083.8492
0178 1418697265 1088.5826
0179 1418701171 1097.6313
0180 1418705078 1102.4336
0181 1418708984 1106.7214
0182 1418712890 1110.0612
0183 1418716796 1116.0525
0184 1418720703 1108.9539
0185 1418724609 1119.0789
0186 1418728515 1122.9501
0187 1418732421 1121.5804
0188 1418736328 1128.4934
0189 1418740234 1131.6764
0190 1418744140 1132.4221
0191 1418748046 1132.7283
0192 1418751953 1131.2065
0193 1418755859 1132.0393
0194 1418759765 1131.7504
0195 1418763671 1132.6565
0196 1418767578 1135.5818
0197 1418771484 1132.9680
0198 1418775390 1129.3784
0199 1418779296 1131.0396
0200 1418783203 1126.5934
0201 1418787109 1133.1757
0202 1418791015 1131.9579
0203 1418794921 1129.6781
0204 1418798828 1123.7794
0205 1418802734 1117.4319
0206 1418806640 1123.5502
0207 1418810546 1119.8893
0208 1418814453 1117.3040
0209 1418818359 1113.9695
0210 1418822265 1112.0806
0211 1418826171 1105.9257
0212 1418830078 1107.7263
0213 1418833984 1103.5596
0214 1418837890 1105.6947
0215 1418841796 1100.6453
0216 1418845703 1096.3160
0217 1418849609 1089.5387
0218 1418853515 1091.7163
0219 1418857421 1087.3519
0220 1418861328 1081.1421
0221 1418865234 1079.4252
0222 1418869140 1077.5374
0223 1418873046 1069.8456
0224 1418876953 1066.7407
0225 1418880859 1066.7931
0226 1418884765 1062.3459
0227 1418888671 1057.9674
0228 1418892578 1054.5321
0229 1418896484 1047.2296
0230 1418900390 1047.3356
0231 1418904296 1046.3898
0232 1418908203 1043.9052
0233 1418912109 1040.8217
0234 1418916015 1039.3760
0235 1418919921 1036.6909
0236 1418923828 1036.4681
0237 1418927734 1031.8602
0238 1418931640 1027.6168
0239 1418935546 1019.9454
0240 1418939453 1023.1252
0241 1418943359 1022.4957
0242 1418947265 1021.2421
0243 1418951171 1017.2883
0244 1418955078 1013.9047
0245 1418958984 1009.8588
0246 1418962890 1008.9434
0247 1418966796 1007.8813
0248 1418970703 1010.5642
0249 1418974609 1005.9684
0250 1418978515 1005.6028
0251 1418982421 1003.7308
0252 1418986328 1000.4897
0253 1418990234 1000.3759
0254 1418994140 1000.1499
0255 1418998046 1001.2245
0256 1419001953 998.3147
0257 1419005859 995.9526
0258 1419009765 998.4553
0259 1419013671 993.2294
0260 1419017578 994.7640
0261 1419021484 995.0867
0262 1419025390 994.9229
0263 1419029296 997.6664
0264 1419033203 998.8156
0265 1419037109 998.9883
0266 1419041015 997.1981
0267 1419044921 993.3348
0268 1419048828 993.4705
0269 1419052734 995.2109
0270 1419056640 995.3669
0271 1419060546 994.8563
0272 1419064453 1000.0224
0273 1419068359 1003.0873
0274 1419072265 1001.4630
0275 1419076171 1001.5394
0276 1419080078 1004.1848
0277 1419083984 1003.5027
0278 1419087890 1002.9694
0279 1419091796 1003.4044
0280 1419095703 1004.9691
0281 1419099609 1010.4223
0282 1419103515 1012.0469
0283 1419107421 1008.9470
0284 1419111328 1011.2284
0285 1419115234 1010.9323
0286 1419119140 1017.0140
0287 1419123046 1014.8311
0288 1419126953 1013.9752
0289 1419130859 1017.4187
0290 1419134765 1015.3358
0291 1419138671 1018.5366
0292 1419142578 1020.2302
0293 1419146484 1020.2357
0294 1419150390 1023.4978
0295 1419154296 1024.0803
0296 1419158203 1028.2214
0297 1419162109 1027.4832
0298 1419166015 1025.5265
0299 1419169921 1032.0170
0300 1419173828 1030.2910
0301 1419177734 1034.0574
0302 1419181640 1037.0375
0303 1419185546 1032.9707
0304 1419189453 1038.4673
0305 1419193359 1037.2324
0306 1419197265 1038.2612
0307 1419201171 1044.7803
0308 1419205078 1040.9617
0309 1419208984 1042.6493
0310 1419212890 1046.8213
0311 1419216796 1047.5956
0312 1419220703 1045.9406
0313 1419224609 1048.8856
0314 1419228515 1051.5616
0315 1419232421 1046.8816
0316 1419236328 1050.1860
0317 1419240234 1056.4160
0318 1419244140 1052.9722
0319 1419248046 1051.2162
0320 1419251953 1057.7419
0321 1419255859 1055.8187
0322 1419259765 1057.2164
0323 1419263671 1058.2692
0324 1419267578 1059.2104
0325 1419271484 1062.0946
0326 1419275390 1065.6775
0327 1419279296 1062.9408
0328 1419283203 1065.8068
0329 1419287109 1065.3041
0330 1419291015 1063.9166
0331 1419294921 1063.1987
0332 1419298828 1065.0671
0333 1419302734 1067.2919
0334 1419306640 1064.7000
0335 1419310546 1066.1581
0336 1419314453 1064.9178
0337 1419318359 1068.1390
0338 1419322265 1073.2896
0339 1419326171 1070.9928
0340 1419330078 1065.3885
0341 1419333984 1070.4108
0342 1419337890 1071.8114
0343 1419341796 1071.7930
0344 1419345703 1069.0927
0345 1419349609 1072.9381
0346 1419353515 1072.6096
0347 1419357421 1070.3579
0348 1419361328 1074.6144
0349 1419365234 1073.8800
0350 1419369140 1071.6963
0351 1419373046 1072.0747
0352 1419376953 1072.7384
0353 1419380859 1070.9432
0354 1419384765 1077.5482
0355 1419388671 1074.2152
0356 1419392578 1073.9965
0357 1419396484 1072.7128
0358 1419400390 1073.0806
0359 1419404296 1075.5831
0360 1419408203 1071.6024
0361 1419412109 1074.8156
0362 1419416015 1071.4967
0363 1419419921 1074.5787
0364 1419423828 1075.1942
0365 1419427734 1078.7572
0366 1419431640 1073.6045
0367 1419435546 1077.6118
0368 1419439453 1079.3529
0369 1419443359 1079.1973
0370 1419447265 1074.4663
0371 1419451171 1076.4496
0372 1419455078 1071.6232
0373 1419458984 1074.2084
0374 1419462890 1075.2063
0375 1419466796 1076.0011
0376 1419470703 1075.3281
0377 1419474609 1077.5249
0378 1419478515 1079.2012
0379 1419482421 1078.4777
0380 1419486328 1078.6144
0381 1419490234 1076.4980
0382 1419494140 1076.0736
0383 1419498046 1077.6708
0384 1419501953 1078.5225
0385 1419505859 1077.9711
0386 1419509765 1074.1072
0387 1419513671 1073.1064
0388 1419517578 1073.3990
0389 1419521484 1078.0281
0390 1419525390 1079.5267
0391 1419529296 1079.8262
0392 1419533203 1073.0524
0393 1419537109 1078.1478
0394 1419541015 1078.1049
0395 1419544921 1080.8409
0396 1419548828 1075.9763
0397 1419552734 1076.4690
0398 1419556640 1078.0670
0399 1419560546 1082.7012
0400 1419564453 1083.6511
0401 1419568359 1075.5450
0402 1419572265 1075.0730
0403 1419576171 1078.7200
0404 1419580078 1079.7520
0405 1419583984 1073.0100
0406 1419587890 1076.8677
0407 1419591796 1080.5708
0408 1419595703 1077.7625
0409 1419599609 1076.5101
0410 1419603515 1078.9000
0411 1419607421 1075.8628
0412 1419611328 1077.9598
0413 1419615234 1076.4336
0414 1419619140 1074.6981
0415 1419623046 1076.6174
0416 1419626953 1076.5221
0417 1419630859 1078.1908
0418 1419634765 1077.1462
0419 1419638671 1074.8226
0420 1419642578 1075.4614
0421 1419646484 1072.1013
0422 1419650390 1075.0167
0423 1419654296 1074.5314
0424 1419658203 1075.3494
0425 1419662109 1075.4718
0426 1419666015 1078.1796
0427 1419669921 1071.2455
0428 1419673828 1069.9497
0429 1419677734 1069.4443
0430 1419681640 1068.4227
0431 1419685546 1068.8416
0432 1419689453 1070.6567
0433 1419693359 1068.7256
0434 1419697265 1067.2682
0435 1419701171 1071.9647
0436 1419705078 1071.1029
0437 1419708984 1065.4091
0438 1419712890 1065.1235
0439 1419716796 1071.7433
0440 1419720703 1065.1576
0441 1419724609 1061.0361
0442 1419728515 1062.7590
0443 1419732421 1062.4321
0444 1419736328 1061.6572
0445 1419740234 1062.0326
0446 1419744140 1053.7670
0447 1419748046 1055.4879
0448 1419751953 1058.8472
0449 1419755859 1053.3732
0450 1419759765 1051.0957
0451 1419763671 1056.2133
0452 1419767578 1053.0060
0453 1419771484 1049.1920
0454 1419775390 1048.2164
0455 1419779296 1053.4861
0456 1419783203 1050.6559
0457 1419787109 1047.0778
0458 1419791015 1050.4044
0459 1419794921 1048.2603
0460 1419798828 1045.1676
0461 1419802734 1041.2552
0462 1419806640 1043.3394
0463 1419810546 1042.3247
0464 1419814453 1043.4124
0465 1419818359 1039.5577
0466 1419822265 1042.3479
0467 1419826171 1041.4755
0468 1419830078 1035.2485
0469 1419833984 1035.1290
0470 1419837890 1035.8954
0471 1419841796 1033.5374
0472 1419845703 1034.1846
0473 1419849609 1035.0846
0474 1419853515 1031.5807
0475 1419857421 1033.6686
0476 1419861328 1031.2148
0477 1419865234 1033.6006
0478 1419869140 1029.4917
0479 1419873046 1027.2064
0480 1419876953 1027.0956
0481 1419880859 1026.7850
0482 1419884765 1029.0994
0483 1419888671 1023.3505
0484 1419892578 1024.1801
0485 1419896484 1024.3477
0486 1419900390 1026.5548
0487 1419904296 1022.0487
0488 1419908203 1021.1543
0489 1419912109 1024.3087
0490 1419916015 1021.6305
0491 1419919921 1019.5387
0492 1419923828 1020.0641
0493 1419927734 1017.7133
0494 1419931640 1018.8661
0495 1419935546 1018.8298
0496 1419939453 1019.5619
0497 1419943359 1020.3050
0498 1419947265 1014.3081
0499 1419951171 1020.5721
0500 1419955078 1017.3171
0501 1419958984 1018.2209
0502 1419962890 1015.9433
0503 1419966796 1017.1576
0504 1419970703 1016.2621
0505 1419974609 1021.5247
0506 1419978515 1015.5900
0507 1419982421 1020.4609
0508 1419986328 1018.9478
0509 1419990234 1019.6154
0510 1419994140 1020.6253
0511 1419998046 1017.0524
0512 1420001953 1012.1208
0513 1420005859 1014.5848
0514 1420009765 1013.3740
0515 1420013671 1021.5704
0516 1420017578 1018.8966
0517 1420021484 1016.0303
0518 1420025390 1016.2387
0519 1420029296 1017.1783
0520 1420033203 1020.7794
0521 1420037109 1018.9538
0522 1420041015 1014.7368
0523 1420044921 1019.2192
0524 1420048828 1016.8011
0525 1420052734 1018.4902
0526 1420056640 1020.7537
0527 1420060546 1022.8939
0528 1420064453 1019.2990
0529 1420068359 1020.5672
0530 1420072265 1019.9150
0531 1420076171 1020.4762
0532 1420080078 1016.7757
0533 1420083984 1018.3011
0534 1420087890 1020.0187
0535 1420091796 1017.6010
0536 1420095703 1020.4802
0537 1420099609 1015.9327
0538 1420103515 1022.9240
0539 1420107421 1021.9708
0540 1420111328 1022.2253
0541 1420115234 1021.8821
0542 1420119140 1016.6755
0543 1420123046 1017.4747
0544 1420126953 1018.4184
0545 1420130859 1018.2098
0546 1420134765 1020.7252
0547 1420138671 1023.3965
0548 1420142578 1022.6225
0549 1420146484 1020.4895
0550 1420150390 1016.5356
0551 1420154296 1014.0324
0552 1420158203 1019.1294
0553 1420162109 1019.3465
0554 1420166015 1021.4854
0555 1420169921 1021.3616
0556 1420173828 1020.0172
0557 1420177734 1019.7876
0558 1420181640 1018.6116
0559 1420185546 1016.0903
0560 1420189453 1015.8830
0561 1420193359 1017.6554
0562 1420197265 1016.1955
0563 1420201171 1019.8247
0564 1420205078 1022.0944
0565 1420208984 1016.3875
0566 1420212890 1015.9869
0567 1420216796 1012.8330
0568 1420220703 1013.0136
0569 1420224609 1012.7847
0570 1420228515 1013.8683
0571 1420232421 1015.4022
0572 1420236328 1013.0116
0573 1420240234 1011.5326
0574 1420244140 1010.6537
0575 1420248046 1013.9117
0576 1420251953 1008.4208
0577 1420255859 1006.9047
0578 1420259765 1009.3632
0579 1420263671 1011.0816
0580 1420267578 1012.7952
0581 1420271484 1010.5622
0582 1420275390 1010.8972
0583 1420279296 1008.9488
0584 1420283203 1005.9987
0585 1420287109 1008.1068
0586 1420291015 1006.2460
0587 1420294921 1006.5579
0588 1420298828 1008.1155
0589 1420302734 1002.4393
0590 1420306640 1002.0743
0591 1420310546 1006.2136
0592 1420314453 1002.2267
0593 1420318359 1004.7558
0594 1420322265 1006.4200
0595 1420326171 1001.1857
0596 1420330078 1004.2935
0597 1420333984 997.0099
0598 1420337890 1000.4917
0599 1420341796 999.8646
0600 1420345703 995.8882
0601 1420349609 998.0476
0602 1420353515 1001.0275
0603 1420357421 1004.6768
0604 1420361328 1000.7713
0605 1420365234 998.0621
0606 1420369140 993.9204
0607 1420373046 993.6789
0608 1420376953 996.3600
0609 1420380859 995.1725
0610 1420384765 992.3650
0611 1420388671 989.5659
0612 1420392578 992.2512
0613 1420396484 991.4496
0614 1420400390 993.0228
0615 1420404296 990.2432
0616 1420408203 993.3965
0617 1420412109 988.3989
0618 1420416015 989.2852
0619 1420419921 992.0976
0620 1420423828 987.8082
0621 1420427734 982.9310
0622 1420431640 984.6186
0623 1420435546 988.1451
0624 1420439453 984.9208
0625 1420443359 982.2505
0626 1420447265 986.9384
0627 1420451171 982.2918
0628 1420455078 982.8752
0629 1420458984 983.4562
0630 1420462890 981.6611
0631 1420466796 982.3254
0632 1420470703 980.7067
0633 1420474609 980.6639
0634 1420478515 983.9990
0635 1420482421 985.2471
0636 1420486328 986.7181
0637 1420490234 983.3215
0638 1420494140 985.5549
0639 1420498046 983.5586
0640 1420501953 983.7036
0641 1420505859 981.9235
0642 1420509765 983.2382
0643 1420513671 983.9668
0644 1420517578 983.5080
0645 1420521484 985.8786
0646 1420525390 984.7061
0647 1420529296 983.9897
0648 1420533203 981.9658
0649 1420537109 984.7505
0650 1420541015 986.4042
0651 1420544921 986.7144
0652 1420548828 987.4794
0653 1420552734 982.6443
0654 1420556640 980.3720
0655 1420560546 981.0763
0656 1420564453 984.5030
0657 1420568359 984.5887
0658 1420572265 986.3149
0659 1420576171 980.6642
0660 1420580078 980.7106
0661 1420583984 984.0788
0662 1420587890 987.8625
0663 1420591796 988.2096
0664 1420595703 982.2361
0665 1420599609 982.0496
0666 1420603515 984.0394
0667 1420607421 988.1155
0668 1420611328 982.1747
0669 1420615234 979.6467
0670 1420619140 984.2217
0671 1420623046 979.4003
0672 1420626953 981.6149
0673 1420630859 981.8140
0674 1420634765 985.7260
0675 1420638671 982.7538
0676 1420642578 983.2155
0677 1420646484 983.2206
0678 1420650390 984.1216
0679 1420654296 985.7093
0680 1420658203 981.1204
0681 1420662109 980.6913
0682 1420666015 984.4052
0683 1420669921 979.7229
0684 1420673828 980.2930
0685 1420677734 984.4048
0686 1420681640 982.4042
0687 1420685546 978.8854
0688 1420689453 975.0684
0689 1420693359 979.3713
0690 1420697265 977.9774
0691 1420701171 977.9827
0692 1420705078 985.0134
0693 1420708984 980.2469
0694 1420712890 981.0513
0695 1420716796 978.2154
0696 1420720703 977.7319
0697 1420724609 975.2211
0698 1420728515 977.8074
0699 1420732421 976.1629
0700 1420736328 976.2136
0701 1420740234 974.5964
0702 1420744140 974.9446
0703 1420748046 973.3550
0704 1420751953 973.8926
0705 1420755859 973.1983
0706 1420759765 971.3023
0707 1420763671 970.3621
0708 1420767578 973.5654
0709 1420771484 970.3407
0710 1420775390 968.2908
0711 1420779296 972.6331
0712 1420783203 969.1004
0713 1420787109 972.0891
0714 1420791015 971.2221
0715 1420794921 967.7954
0716 1420798828 969.5840
0717 1420802734 966.5868
0718 1420806640 967.5355
0719 1420810546 966.0908
0720 1420814453 968.7548
0721 1420818359 961.8876
0722 1420822265 966.0889
0723 1420826171 966.4243
0724 1420830078 963.9493
0725 1420833984 965.5291
0726 1420837890 962.2987
0727 1420841796 960.9460
0728 1420845703 963.9266
0729 1420849609 961.8102
0730 1420853515 963.6469
0731 1420857421 962.1700
0732 1420861328 963.2606
0733 1420865234 962.2820
