# File: 20-11-28T185525.hot
# NOTEA     = RSP1A+GPIOLabs Pi #1 On Horn
# NOTEB     = Sdrplay 8 MHz Test
# OBSERVER  = Science Aficionado
# DEVICE    = SDRPlay RSP1A
# DATADIR   = ../data/
# SITE      = RSP1A+GPIOLabs Pi #1 On Horn
# CITY      = Green Bank
# REGION    = West Virginia
# COUNTRY   = US
# TELTYPE   = Bubble Wrap  Horn
# FRAME     = TOPO
# GAIN1     = 0.0
# GAIN2     = 12.0
# GAIN3     = 12.0
# GAIN4     = 0.0
# Count     = 360000
# CenterFreq= 1422000000.0
# Bandwidth = 8000000.0
# Duration  = 156.78323
# DeltaX    = 5859.375
# TSYS      = 200.0
# TRX       = 100.0
# TRMS      = 2.0
# TINT      = 1.0
# KPERC     = 100.0
# GAINFACT  = 1.0
# BUNIT     = Counts
# NCHAN     = 2048
# NSPEC     = 1
# NTIME     = 0
# NSAMPLES  = 0
# EPEAK     = 4.10875183718
# ERMS      = 0.995973393526
# EMJD      = 58568.808999981004 
# REFCHAN   = 1024.0
# REFSAMPL  = 256.0
# NAVE      = 600
# NMEDIAN   = 1024
# Fft_rate  = 5000
# UTC       = 2020-11-28 18:55:25.957315
# SECONDS   =       0.0000000000 
# LST       = 18:08:35.460
# AZ        = 180.0
# EL        = -40.0
# TELLON    = -79:50:22.920
# TELLAT    = +38:25:59.160
# RA        = 06:39:06.540
# DEC       = -88:24:42.900
# GALLON    = 301:08:55.90
# GALLAT    = -27:12:08.60
# ALT_SUN   = +24:59:51.6
# AZ_SUN    = +207:44:34.9
# ETAA      = 0.8
# ETAB      = 0.99
# POLANGLE  = 0.0
# TELSIZEAM = 1.0
# TELSIZEBM = 1.0
# AST_VERS  = 05.01
0000 1418001953 0.8704
0001 1418005859 0.8754
0002 1418009765 0.8770
0003 1418013671 0.8771
0004 1418017578 0.8826
0005 1418021484 0.8850
0006 1418025390 0.8823
0007 1418029296 0.8852
0008 1418033203 0.8905
0009 1418037109 0.8913
0010 1418041015 0.8917
0011 1418044921 0.8977
0012 1418048828 0.8978
0013 1418052734 0.8954
0014 1418056640 0.9008
0015 1418060546 0.9043
0016 1418064453 0.9051
0017 1418068359 0.9035
0018 1418072265 0.9067
0019 1418076171 0.9024
0020 1418080078 0.9030
0021 1418083984 0.8967
0022 1418087890 0.8911
0023 1418091796 0.8855
0024 1418095703 0.8770
0025 1418099609 0.8678
0026 1418103515 0.8581
0027 1418107421 0.8489
0028 1418111328 0.8345
0029 1418115234 0.8193
0030 1418119140 0.7947
0031 1418123046 0.7778
0032 1418126953 0.7578
0033 1418130859 0.7288
0034 1418134765 0.7011
0035 1418138671 0.6681
0036 1418142578 0.6360
0037 1418146484 0.6032
0038 1418150390 0.5631
0039 1418154296 0.5260
0040 1418158203 0.4826
0041 1418162109 0.4401
0042 1418166015 0.3964
0043 1418169921 0.3504
0044 1418173828 0.3073
0045 1418177734 0.2618
0046 1418181640 0.2183
0047 1418185546 0.1776
0048 1418189453 0.1383
0049 1418193359 0.1035
0050 1418197265 0.0744
0051 1418201171 0.0519
0052 1418205078 0.0378
0053 1418208984 0.0338
0054 1418212890 0.0415
0055 1418216796 0.0633
0056 1418220703 0.1017
0057 1418224609 0.1600
0058 1418228515 0.2389
0059 1418232421 0.3448
0060 1418236328 0.4763
0061 1418240234 0.6379
0062 1418244140 0.8417
0063 1418248046 1.0834
0064 1418251953 1.3661
0065 1418255859 1.7007
0066 1418259765 2.0812
0067 1418263671 2.5270
0068 1418267578 3.0334
0069 1418271484 3.6226
0070 1418275390 4.2995
0071 1418279296 5.0408
0072 1418283203 5.8686
0073 1418287109 6.8282
0074 1418291015 7.8299
0075 1418294921 8.9806
0076 1418298828 10.2418
0077 1418302734 11.6908
0078 1418306640 13.1861
0079 1418310546 14.9000
0080 1418314453 16.6985
0081 1418318359 18.6671
0082 1418322265 20.9039
0083 1418326171 23.2746
0084 1418330078 25.7455
0085 1418333984 28.6520
0086 1418337890 31.6456
0087 1418341796 34.8130
0088 1418345703 38.1233
0089 1418349609 41.8000
0090 1418353515 45.7536
0091 1418357421 49.7691
0092 1418361328 54.4940
0093 1418365234 59.3120
0094 1418369140 64.1592
0095 1418373046 69.4155
0096 1418376953 74.8696
0097 1418380859 81.0504
0098 1418384765 87.6444
0099 1418388671 93.8265
0100 1418392578 100.4683
0101 1418396484 107.8853
0102 1418400390 115.8203
0103 1418404296 123.4534
0104 1418408203 132.2801
0105 1418412109 140.8022
0106 1418416015 150.3708
0107 1418419921 158.5414
0108 1418423828 168.5467
0109 1418427734 178.7509
0110 1418431640 189.3605
0111 1418435546 199.5085
0112 1418439453 211.4907
0113 1418443359 223.1088
0114 1418447265 234.6733
0115 1418451171 246.9318
0116 1418455078 260.9734
0117 1418458984 272.8817
0118 1418462890 285.7123
0119 1418466796 299.5638
0120 1418470703 315.0347
0121 1418474609 327.9938
0122 1418478515 342.0405
0123 1418482421 356.3260
0124 1418486328 372.6819
0125 1418490234 387.4435
0126 1418494140 404.2002
0127 1418498046 419.0750
0128 1418501953 434.8008
0129 1418505859 450.4042
0130 1418509765 467.6838
0131 1418513671 484.3392
0132 1418517578 503.8050
0133 1418521484 518.6661
0134 1418525390 537.0079
0135 1418529296 551.7798
0136 1418533203 569.2786
0137 1418537109 587.9344
0138 1418541015 607.2902
0139 1418544921 623.4619
0140 1418548828 638.1052
0141 1418552734 656.5585
0142 1418556640 675.7922
0143 1418560546 690.2018
0144 1418564453 708.1461
0145 1418568359 728.2692
0146 1418572265 741.5792
0147 1418576171 758.4261
0148 1418580078 776.6025
0149 1418583984 793.4056
0150 1418587890 808.6248
0151 1418591796 823.7495
0152 1418595703 841.3751
0153 1418599609 860.0629
0154 1418603515 873.1699
0155 1418607421 885.3871
0156 1418611328 896.3038
0157 1418615234 916.5467
0158 1418619140 931.4540
0159 1418623046 942.4382
0160 1418626953 957.5583
0161 1418630859 968.9820
0162 1418634765 982.6559
0163 1418638671 998.9606
0164 1418642578 1007.5530
0165 1418646484 1016.6058
0166 1418650390 1032.6385
0167 1418654296 1041.2377
0168 1418658203 1049.4736
0169 1418662109 1058.3303
0170 1418666015 1067.7040
0171 1418669921 1077.7509
0172 1418673828 1087.5970
0173 1418677734 1097.8805
0174 1418681640 1105.1477
0175 1418685546 1111.2957
0176 1418689453 1118.8792
0177 1418693359 1125.3623
0178 1418697265 1132.8408
0179 1418701171 1136.8721
0180 1418705078 1142.6709
0181 1418708984 1149.0985
0182 1418712890 1153.9829
0183 1418716796 1159.9850
0184 1418720703 1160.6603
0185 1418724609 1165.0878
0186 1418728515 1171.8478
0187 1418732421 1173.5510
0188 1418736328 1172.2008
0189 1418740234 1174.8785
0190 1418744140 1180.6736
0191 1418748046 1176.0559
0192 1418751953 1174.5985
0193 1418755859 1177.9832
0194 1418759765 1182.3162
0195 1418763671 1178.0378
0196 1418767578 1180.8944
0197 1418771484 1183.4941
0198 1418775390 1178.8713
0199 1418779296 1177.8840
0200 1418783203 1180.0131
0201 1418787109 1175.0829
0202 1418791015 1175.0261
0203 1418794921 1171.5663
0204 1418798828 1171.6089
0205 1418802734 1168.2909
0206 1418806640 1169.7329
0207 1418810546 1164.7959
0208 1418814453 1162.6925
0209 1418818359 1154.3845
0210 1418822265 1157.1852
0211 1418826171 1153.7961
0212 1418830078 1145.7180
0213 1418833984 1149.3210
0214 1418837890 1143.9166
0215 1418841796 1137.1611
0216 1418845703 1132.1992
0217 1418849609 1136.5925
0218 1418853515 1129.0671
0219 1418857421 1129.9661
0220 1418861328 1122.8512
0221 1418865234 1119.2620
0222 1418869140 1116.4714
0223 1418873046 1122.2808
0224 1418876953 1111.1630
0225 1418880859 1109.3760
0226 1418884765 1104.3330
0227 1418888671 1103.4977
0228 1418892578 1096.6694
0229 1418896484 1094.1259
0230 1418900390 1089.7202
0231 1418904296 1087.6887
0232 1418908203 1086.9507
0233 1418912109 1082.0026
0234 1418916015 1078.5156
0235 1418919921 1075.0095
0236 1418923828 1074.1019
0237 1418927734 1073.1357
0238 1418931640 1071.2747
0239 1418935546 1066.1755
0240 1418939453 1060.9082
0241 1418943359 1064.1127
0242 1418947265 1061.9734
0243 1418951171 1059.2815
0244 1418955078 1054.3754
0245 1418958984 1054.8234
0246 1418962890 1051.9423
0247 1418966796 1050.3762
0248 1418970703 1044.4542
0249 1418974609 1049.1980
0250 1418978515 1044.6002
0251 1418982421 1041.3243
0252 1418986328 1040.5587
0253 1418990234 1044.9421
0254 1418994140 1043.3687
0255 1418998046 1038.3501
0256 1419001953 1038.3436
0257 1419005859 1041.8756
0258 1419009765 1040.8467
0259 1419013671 1037.3029
0260 1419017578 1035.4449
0261 1419021484 1035.2202
0262 1419025390 1035.6084
0263 1419029296 1035.3901
0264 1419033203 1033.3352
0265 1419037109 1032.5303
0266 1419041015 1037.9117
0267 1419044921 1039.3589
0268 1419048828 1040.0720
0269 1419052734 1038.1184
0270 1419056640 1038.1404
0271 1419060546 1038.0674
0272 1419064453 1037.9159
0273 1419068359 1041.9432
0274 1419072265 1041.3728
0275 1419076171 1036.4523
0276 1419080078 1040.3861
0277 1419083984 1044.2415
0278 1419087890 1046.8414
0279 1419091796 1047.9152
0280 1419095703 1050.6818
0281 1419099609 1050.6704
0282 1419103515 1048.1694
0283 1419107421 1048.5947
0284 1419111328 1053.1844
0285 1419115234 1050.1207
0286 1419119140 1053.0101
0287 1419123046 1059.1378
0288 1419126953 1058.8290
0289 1419130859 1056.5104
0290 1419134765 1056.8348
0291 1419138671 1062.4905
0292 1419142578 1062.4011
0293 1419146484 1060.5330
0294 1419150390 1063.4532
0295 1419154296 1066.1858
0296 1419158203 1070.2294
0297 1419162109 1074.6522
0298 1419166015 1074.9188
0299 1419169921 1073.9031
0300 1419173828 1076.8491
0301 1419177734 1078.7648
0302 1419181640 1082.1770
0303 1419185546 1078.1688
0304 1419189453 1078.3391
0305 1419193359 1087.5332
0306 1419197265 1085.3641
0307 1419201171 1088.6412
0308 1419205078 1088.0352
0309 1419208984 1086.3362
0310 1419212890 1088.1113
0311 1419216796 1090.1450
0312 1419220703 1088.2245
0313 1419224609 1090.5183
0314 1419228515 1094.4348
0315 1419232421 1097.3217
0316 1419236328 1095.2793
0317 1419240234 1095.5217
0318 1419244140 1099.2726
0319 1419248046 1101.6177
0320 1419251953 1098.5608
0321 1419255859 1105.4901
0322 1419259765 1097.6160
0323 1419263671 1098.1608
0324 1419267578 1104.3101
0325 1419271484 1103.5059
0326 1419275390 1099.6838
0327 1419279296 1103.4445
0328 1419283203 1106.9766
0329 1419287109 1109.5344
0330 1419291015 1108.0952
0331 1419294921 1105.2197
0332 1419298828 1106.9032
0333 1419302734 1108.9308
0334 1419306640 1110.3866
0335 1419310546 1105.8435
0336 1419314453 1108.5106
0337 1419318359 1110.9198
0338 1419322265 1111.4021
0339 1419326171 1111.2795
0340 1419330078 1113.2169
0341 1419333984 1113.7623
0342 1419337890 1114.3340
0343 1419341796 1114.7867
0344 1419345703 1111.4144
0345 1419349609 1114.3528
0346 1419353515 1114.8760
0347 1419357421 1113.0808
0348 1419361328 1116.1677
0349 1419365234 1114.4291
0350 1419369140 1118.7556
0351 1419373046 1122.3173
0352 1419376953 1119.1876
0353 1419380859 1117.9507
0354 1419384765 1116.0225
0355 1419388671 1117.1953
0356 1419392578 1112.5746
0357 1419396484 1118.2904
0358 1419400390 1115.9153
0359 1419404296 1118.4387
0360 1419408203 1118.4043
0361 1419412109 1115.0977
0362 1419416015 1118.7988
0363 1419419921 1118.0525
0364 1419423828 1119.0522
0365 1419427734 1119.4382
0366 1419431640 1120.5157
0367 1419435546 1116.3480
0368 1419439453 1119.1841
0369 1419443359 1119.0431
0370 1419447265 1120.7253
0371 1419451171 1119.8291
0372 1419455078 1115.2257
0373 1419458984 1119.9755
0374 1419462890 1116.5634
0375 1419466796 1118.6293
0376 1419470703 1121.1851
0377 1419474609 1120.1703
0378 1419478515 1121.4916
0379 1419482421 1119.6074
0380 1419486328 1117.6278
0381 1419490234 1115.7112
0382 1419494140 1121.4653
0383 1419498046 1116.9855
0384 1419501953 1119.5753
0385 1419505859 1122.6519
0386 1419509765 1121.0967
0387 1419513671 1123.7870
0388 1419517578 1119.8058
0389 1419521484 1119.2539
0390 1419525390 1121.2136
0391 1419529296 1126.9432
0392 1419533203 1126.2361
0393 1419537109 1122.7338
0394 1419541015 1118.7061
0395 1419544921 1119.5740
0396 1419548828 1119.4539
0397 1419552734 1124.5021
0398 1419556640 1124.8326
0399 1419560546 1121.3201
0400 1419564453 1122.5991
0401 1419568359 1123.3668
0402 1419572265 1122.4668
0403 1419576171 1120.2488
0404 1419580078 1117.9357
0405 1419583984 1122.6952
0406 1419587890 1124.0580
0407 1419591796 1125.9358
0408 1419595703 1125.9895
0409 1419599609 1121.5947
0410 1419603515 1120.3722
0411 1419607421 1124.1783
0412 1419611328 1118.7872
0413 1419615234 1124.0679
0414 1419619140 1123.9526
0415 1419623046 1118.7987
0416 1419626953 1120.2373
0417 1419630859 1117.5573
0418 1419634765 1117.5569
0419 1419638671 1119.7029
0420 1419642578 1121.2654
0421 1419646484 1120.6451
0422 1419650390 1121.3085
0423 1419654296 1111.5825
0424 1419658203 1114.2095
0425 1419662109 1116.8750
0426 1419666015 1114.6633
0427 1419669921 1113.8693
0428 1419673828 1119.2672
0429 1419677734 1116.5350
0430 1419681640 1115.8473
0431 1419685546 1113.5123
0432 1419689453 1112.2167
0433 1419693359 1112.0038
0434 1419697265 1112.7096
0435 1419701171 1113.2474
0436 1419705078 1111.4919
0437 1419708984 1108.1561
0438 1419712890 1109.4540
0439 1419716796 1111.1918
0440 1419720703 1108.4968
0441 1419724609 1105.3013
0442 1419728515 1110.4116
0443 1419732421 1109.0762
0444 1419736328 1106.1730
0445 1419740234 1104.6562
0446 1419744140 1100.4824
0447 1419748046 1099.5557
0448 1419751953 1098.7291
0449 1419755859 1099.8835
0450 1419759765 1102.2256
0451 1419763671 1098.5316
0452 1419767578 1099.0327
0453 1419771484 1094.0503
0454 1419775390 1093.1210
0455 1419779296 1091.2396
0456 1419783203 1089.8163
0457 1419787109 1087.1451
0458 1419791015 1090.9556
0459 1419794921 1089.9082
0460 1419798828 1084.5155
0461 1419802734 1084.0199
0462 1419806640 1091.3096
0463 1419810546 1090.6584
0464 1419814453 1087.1295
0465 1419818359 1084.8831
0466 1419822265 1085.4727
0467 1419826171 1077.4969
0468 1419830078 1079.7487
0469 1419833984 1078.0654
0470 1419837890 1081.2467
0471 1419841796 1075.9241
0472 1419845703 1075.6731
0473 1419849609 1076.9839
0474 1419853515 1078.8826
0475 1419857421 1071.4353
0476 1419861328 1070.4330
0477 1419865234 1071.5800
0478 1419869140 1065.9425
0479 1419873046 1070.8998
0480 1419876953 1072.7637
0481 1419880859 1070.7855
0482 1419884765 1067.9418
0483 1419888671 1068.8838
0484 1419892578 1067.7693
0485 1419896484 1065.9216
0486 1419900390 1063.4884
0487 1419904296 1064.7339
0488 1419908203 1066.0439
0489 1419912109 1065.7389
0490 1419916015 1063.3296
0491 1419919921 1063.9648
0492 1419923828 1064.8214
0493 1419927734 1065.8051
0494 1419931640 1059.7637
0495 1419935546 1058.4829
0496 1419939453 1061.0244
0497 1419943359 1057.9569
0498 1419947265 1059.1208
0499 1419951171 1063.3868
0500 1419955078 1061.4807
0501 1419958984 1060.5688
0502 1419962890 1057.9163
0503 1419966796 1056.1870
0504 1419970703 1055.6847
0505 1419974609 1058.7855
0506 1419978515 1057.7758
0507 1419982421 1055.6471
0508 1419986328 1061.0577
0509 1419990234 1058.0767
0510 1419994140 1057.9003
0511 1419998046 1058.9379
0512 1420001953 1060.0771
0513 1420005859 1060.2911
0514 1420009765 1057.4419
0515 1420013671 1056.7213
0516 1420017578 1057.8813
0517 1420021484 1056.4315
0518 1420025390 1056.0830
0519 1420029296 1061.2310
0520 1420033203 1061.5475
0521 1420037109 1055.0220
0522 1420041015 1055.3282
0523 1420044921 1057.8438
0524 1420048828 1059.6589
0525 1420052734 1061.1360
0526 1420056640 1056.4860
0527 1420060546 1056.9525
0528 1420064453 1059.1589
0529 1420068359 1062.8506
0530 1420072265 1058.3546
0531 1420076171 1059.8014
0532 1420080078 1060.2557
0533 1420083984 1062.2629
0534 1420087890 1056.7463
0535 1420091796 1058.9215
0536 1420095703 1062.8409
0537 1420099609 1063.0575
0538 1420103515 1057.6989
0539 1420107421 1060.1875
0540 1420111328 1061.2188
0541 1420115234 1059.3678
0542 1420119140 1058.2150
0543 1420123046 1062.5055
0544 1420126953 1057.1656
0545 1420130859 1058.4290
0546 1420134765 1059.3055
0547 1420138671 1059.2306
0548 1420142578 1058.1495
0549 1420146484 1058.4150
0550 1420150390 1062.8228
0551 1420154296 1061.9889
0552 1420158203 1059.2638
0553 1420162109 1055.8624
0554 1420166015 1059.3484
0555 1420169921 1059.6240
0556 1420173828 1058.3799
0557 1420177734 1053.6019
0558 1420181640 1058.1584
0559 1420185546 1060.9037
0560 1420189453 1058.6437
0561 1420193359 1055.7036
0562 1420197265 1054.0050
0563 1420201171 1055.7469
0564 1420205078 1060.1415
0565 1420208984 1054.4122
0566 1420212890 1052.5575
0567 1420216796 1056.5929
0568 1420220703 1055.0560
0569 1420224609 1057.8337
0570 1420228515 1053.4825
0571 1420232421 1049.1506
0572 1420236328 1050.7327
0573 1420240234 1050.5339
0574 1420244140 1048.8590
0575 1420248046 1050.7628
0576 1420251953 1051.7468
0577 1420255859 1054.8053
0578 1420259765 1047.8412
0579 1420263671 1049.6240
0580 1420267578 1045.9589
0581 1420271484 1048.5405
0582 1420275390 1047.1368
0583 1420279296 1045.6012
0584 1420283203 1048.1624
0585 1420287109 1048.7601
0586 1420291015 1043.6534
0587 1420294921 1044.4132
0588 1420298828 1046.6581
0589 1420302734 1038.9536
0590 1420306640 1040.0867
0591 1420310546 1044.6523
0592 1420314453 1045.8060
0593 1420318359 1042.4701
0594 1420322265 1042.3135
0595 1420326171 1038.4043
0596 1420330078 1036.3398
0597 1420333984 1040.8065
0598 1420337890 1037.9675
0599 1420341796 1036.2548
0600 1420345703 1036.6306
0601 1420349609 1038.5939
0602 1420353515 1036.3452
0603 1420357421 1041.4493
0604 1420361328 1037.3226
0605 1420365234 1034.7083
0606 1420369140 1035.0105
0607 1420373046 1033.4095
0608 1420376953 1029.8668
0609 1420380859 1038.4095
0610 1420384765 1033.4067
0611 1420388671 1031.4768
0612 1420392578 1030.3483
0613 1420396484 1029.0127
0614 1420400390 1029.4950
0615 1420404296 1028.8320
0616 1420408203 1028.7412
0617 1420412109 1029.5417
0618 1420416015 1025.2161
0619 1420419921 1026.2085
0620 1420423828 1025.7565
0621 1420427734 1026.2124
0622 1420431640 1027.4387
0623 1420435546 1023.1061
0624 1420439453 1023.4652
0625 1420443359 1023.4338
0626 1420447265 1025.5588
0627 1420451171 1024.5380
0628 1420455078 1021.0439
0629 1420458984 1021.6835
0630 1420462890 1022.5803
0631 1420466796 1021.5045
0632 1420470703 1023.4805
0633 1420474609 1021.1734
0634 1420478515 1020.1960
0635 1420482421 1022.7801
0636 1420486328 1022.2956
0637 1420490234 1020.6547
0638 1420494140 1023.6745
0639 1420498046 1022.1235
0640 1420501953 1022.0970
0641 1420505859 1022.0831
0642 1420509765 1021.5376
0643 1420513671 1019.2067
0644 1420517578 1023.3819
0645 1420521484 1023.5319
0646 1420525390 1024.5371
0647 1420529296 1024.0736
0648 1420533203 1020.1650
0649 1420537109 1019.2489
0650 1420541015 1022.1550
0651 1420544921 1021.8281
0652 1420548828 1023.6541
0653 1420552734 1026.5712
0654 1420556640 1019.3976
0655 1420560546 1021.1165
0656 1420564453 1024.2605
0657 1420568359 1023.7167
0658 1420572265 1023.3608
0659 1420576171 1023.6333
0660 1420580078 1021.4687
0661 1420583984 1018.2418
0662 1420587890 1021.3799
0663 1420591796 1024.5105
0664 1420595703 1022.3193
0665 1420599609 1024.0396
0666 1420603515 1024.0918
0667 1420607421 1021.9720
0668 1420611328 1021.4462
0669 1420615234 1025.9905
0670 1420619140 1029.8475
0671 1420623046 1027.1602
0672 1420626953 1021.3169
0673 1420630859 1020.4963
0674 1420634765 1023.7485
0675 1420638671 1022.3141
0676 1420642578 1022.4645
0677 1420646484 1022.9540
0678 1420650390 1021.7460
0679 1420654296 1024.6888
0680 1420658203 1022.2967
0681 1420662109 1025.5132
0682 1420666015 1021.9376
0683 1420669921 1020.9689
0684 1420673828 1019.4920
0685 1420677734 1020.1110
0686 1420681640 1020.0287
0687 1420685546 1019.9197
0688 1420689453 1020.3194
0689 1420693359 1016.3119
0690 1420697265 1019.9052
0691 1420701171 1021.0115
0692 1420705078 1018.1447
0693 1420708984 1018.3416
0694 1420712890 1013.9256
0695 1420716796 1016.7095
0696 1420720703 1016.0547
0697 1420724609 1016.4067
0698 1420728515 1018.1025
0699 1420732421 1015.5829
0700 1420736328 1010.1923
0701 1420740234 1013.0941
0702 1420744140 1013.0005
0703 1420748046 1008.8443
0704 1420751953 1012.9622
0705 1420755859 1009.9686
0706 1420759765 1013.0615
0707 1420763671 1011.6472
0708 1420767578 1011.7636
0709 1420771484 1011.3759
0710 1420775390 1010.6667
0711 1420779296 1007.3605
0712 1420783203 1002.8193
0713 1420787109 1008.2740
0714 1420791015 1007.6379
0715 1420794921 1009.9557
0716 1420798828 1008.7751
0717 1420802734 1006.7850
0718 1420806640 1006.0838
0719 1420810546 1003.9986
0720 1420814453 1000.8261
0721 1420818359 1002.5735
0722 1420822265 1003.2408
0723 1420826171 1006.1440
0724 1420830078 1005.0218
0725 1420833984 1002.8849
0726 1420837890 1004.4511
0727 1420841796 1003.6541
