# File: 20-11-28T185011.hot
# NOTEA     = RSP1A+GPIOLabs Pi #1 On Horn
# NOTEB     = Sdrplay 8 MHz Test
# OBSERVER  = Science Aficionado
# DEVICE    = SDRPlay RSP1A
# DATADIR   = ../data/
# SITE      = RSP1A+GPIOLabs Pi #1 On Horn
# CITY      = Green Bank
# REGION    = West Virginia
# COUNTRY   = US
# TELTYPE   = Bubble Wrap  Horn
# FRAME     = TOPO
# GAIN1     = 0.0
# GAIN2     = 12.0
# GAIN3     = 12.0
# GAIN4     = 0.0
# Count     = 360000
# CenterFreq= 1422000000.0
# Bandwidth = 8000000.0
# Duration  = 157.289455
# DeltaX    = 5859.375
# TSYS      = 200.0
# TRX       = 100.0
# TRMS      = 2.0
# TINT      = 1.0
# KPERC     = 100.0
# GAINFACT  = 1.0
# BUNIT     = Counts
# NCHAN     = 2048
# NSPEC     = 1
# NTIME     = 0
# NSAMPLES  = 0
# EPEAK     = 4.10875183718
# ERMS      = 0.995973393526
# EMJD      = 58568.808999981004 
# REFCHAN   = 1024.0
# REFSAMPL  = 256.0
# NAVE      = 600
# NMEDIAN   = 1024
# Fft_rate  = 5000
# UTC       = 2020-11-28 18:50:11.129037
# SECONDS   =       0.0000000000 
# LST       = 18:03:19.770
# AZ        = 180.0
# EL        = -40.0
# TELLON    = -79:50:22.920
# TELLAT    = +38:25:59.160
# RA        = 06:33:57.730
# DEC       = -88:25:01.400
# GALLON    = 301:09:24.00
# GALLAT    = -27:14:15.60
# ALT_SUN   = +25:27:57.1
# AZ_SUN    = +206:29:52.0
# ETAA      = 0.8
# ETAB      = 0.99
# POLANGLE  = 0.0
# TELSIZEAM = 1.0
# TELSIZEBM = 1.0
# AST_VERS  = 05.01
0000 1418001953 0.8745
0001 1418005859 0.8757
0002 1418009765 0.8775
0003 1418013671 0.8791
0004 1418017578 0.8786
0005 1418021484 0.8801
0006 1418025390 0.8828
0007 1418029296 0.8873
0008 1418033203 0.8938
0009 1418037109 0.8932
0010 1418041015 0.8915
0011 1418044921 0.8970
0012 1418048828 0.9005
0013 1418052734 0.9013
0014 1418056640 0.9003
0015 1418060546 0.9035
0016 1418064453 0.9038
0017 1418068359 0.9035
0018 1418072265 0.9025
0019 1418076171 0.9031
0020 1418080078 0.8970
0021 1418083984 0.8952
0022 1418087890 0.8895
0023 1418091796 0.8844
0024 1418095703 0.8794
0025 1418099609 0.8696
0026 1418103515 0.8597
0027 1418107421 0.8489
0028 1418111328 0.8355
0029 1418115234 0.8184
0030 1418119140 0.7967
0031 1418123046 0.7769
0032 1418126953 0.7528
0033 1418130859 0.7318
0034 1418134765 0.7007
0035 1418138671 0.6683
0036 1418142578 0.6391
0037 1418146484 0.6008
0038 1418150390 0.5630
0039 1418154296 0.5251
0040 1418158203 0.4851
0041 1418162109 0.4413
0042 1418166015 0.3973
0043 1418169921 0.3527
0044 1418173828 0.3062
0045 1418177734 0.2619
0046 1418181640 0.2186
0047 1418185546 0.1767
0048 1418189453 0.1385
0049 1418193359 0.1036
0050 1418197265 0.0747
0051 1418201171 0.0522
0052 1418205078 0.0380
0053 1418208984 0.0337
0054 1418212890 0.0416
0055 1418216796 0.0635
0056 1418220703 0.1025
0057 1418224609 0.1597
0058 1418228515 0.2402
0059 1418232421 0.3441
0060 1418236328 0.4778
0061 1418240234 0.6389
0062 1418244140 0.8438
0063 1418248046 1.0878
0064 1418251953 1.3671
0065 1418255859 1.7071
0066 1418259765 2.0959
0067 1418263671 2.5453
0068 1418267578 3.0494
0069 1418271484 3.6421
0070 1418275390 4.2908
0071 1418279296 5.0502
0072 1418283203 5.8738
0073 1418287109 6.8164
0074 1418291015 7.8447
0075 1418294921 9.0184
0076 1418298828 10.2765
0077 1418302734 11.6586
0078 1418306640 13.2725
0079 1418310546 14.8797
0080 1418314453 16.7236
0081 1418318359 18.8374
0082 1418322265 20.9289
0083 1418326171 23.2537
0084 1418330078 25.8157
0085 1418333984 28.6214
0086 1418337890 31.5835
0087 1418341796 34.7910
0088 1418345703 38.1861
0089 1418349609 41.9389
0090 1418353515 45.9848
0091 1418357421 50.0936
0092 1418361328 54.3310
0093 1418365234 59.0640
0094 1418369140 64.3405
0095 1418373046 69.5030
0096 1418376953 74.9359
0097 1418380859 81.2012
0098 1418384765 87.4548
0099 1418388671 93.7783
0100 1418392578 101.0946
0101 1418396484 108.2464
0102 1418400390 115.6612
0103 1418404296 123.9891
0104 1418408203 132.1459
0105 1418412109 140.2973
0106 1418416015 150.0539
0107 1418419921 159.1293
0108 1418423828 168.5728
0109 1418427734 179.2022
0110 1418431640 190.0485
0111 1418435546 200.4403
0112 1418439453 211.4344
0113 1418443359 223.4204
0114 1418447265 234.9488
0115 1418451171 247.2335
0116 1418455078 260.0603
0117 1418458984 273.3259
0118 1418462890 286.7994
0119 1418466796 301.2870
0120 1418470703 314.0002
0121 1418474609 329.3691
0122 1418478515 343.3584
0123 1418482421 358.3146
0124 1418486328 373.4142
0125 1418490234 388.3308
0126 1418494140 404.0330
0127 1418498046 420.4371
0128 1418501953 436.1759
0129 1418505859 453.0584
0130 1418509765 471.6729
0131 1418513671 487.8822
0132 1418517578 502.9272
0133 1418521484 519.2360
0134 1418525390 537.5491
0135 1418529296 554.9267
0136 1418533203 572.5301
0137 1418537109 587.6418
0138 1418541015 606.6437
0139 1418544921 623.5152
0140 1418548828 641.9214
0141 1418552734 656.7498
0142 1418556640 673.9753
0143 1418560546 691.9354
0144 1418564453 712.1807
0145 1418568359 725.5741
0146 1418572265 745.0181
0147 1418576171 759.8375
0148 1418580078 778.9155
0149 1418583984 796.8663
0150 1418587890 809.3170
0151 1418591796 824.3866
0152 1418595703 843.9776
0153 1418599609 857.0243
0154 1418603515 872.4982
0155 1418607421 886.7123
0156 1418611328 902.9355
0157 1418615234 917.0654
0158 1418619140 930.7065
0159 1418623046 946.0747
0160 1418626953 956.4213
0161 1418630859 968.0383
0162 1418634765 989.2114
0163 1418638671 1001.8318
0164 1418642578 1008.0387
0165 1418646484 1022.9434
0166 1418650390 1030.0719
0167 1418654296 1040.9465
0168 1418658203 1056.7854
0169 1418662109 1065.3391
0170 1418666015 1069.8564
0171 1418669921 1082.5347
0172 1418673828 1092.2053
0173 1418677734 1100.0470
0174 1418681640 1107.9894
0175 1418685546 1113.8806
0176 1418689453 1118.7592
0177 1418693359 1126.7457
0178 1418697265 1137.6938
0179 1418701171 1142.0613
0180 1418705078 1147.9250
0181 1418708984 1150.2686
0182 1418712890 1155.0811
0183 1418716796 1160.7212
0184 1418720703 1160.1115
0185 1418724609 1163.2263
0186 1418728515 1168.9363
0187 1418732421 1172.2711
0188 1418736328 1179.5748
0189 1418740234 1177.7429
0190 1418744140 1182.9385
0191 1418748046 1182.9763
0192 1418751953 1176.8400
0193 1418755859 1181.2100
0194 1418759765 1183.1548
0195 1418763671 1185.0934
0196 1418767578 1182.6489
0197 1418771484 1181.8494
0198 1418775390 1184.8790
0199 1418779296 1184.1406
0200 1418783203 1179.3981
0201 1418787109 1180.6676
0202 1418791015 1175.9686
0203 1418794921 1176.9452
0204 1418798828 1173.2859
0205 1418802734 1176.1011
0206 1418806640 1171.8230
0207 1418810546 1165.5226
0208 1418814453 1162.0646
0209 1418818359 1163.5428
0210 1418822265 1154.7025
0211 1418826171 1154.1775
0212 1418830078 1153.1564
0213 1418833984 1151.0052
0214 1418837890 1142.6593
0215 1418841796 1143.2262
0216 1418845703 1142.3307
0217 1418849609 1137.3533
0218 1418853515 1134.4559
0219 1418857421 1131.6936
0220 1418861328 1125.2847
0221 1418865234 1120.3104
0222 1418869140 1121.5894
0223 1418873046 1117.2548
0224 1418876953 1113.5916
0225 1418880859 1113.7021
0226 1418884765 1105.9502
0227 1418888671 1103.4849
0228 1418892578 1101.5505
0229 1418896484 1101.0343
0230 1418900390 1092.6704
0231 1418904296 1090.7312
0232 1418908203 1087.2428
0233 1418912109 1086.7294
0234 1418916015 1083.2064
0235 1418919921 1079.8951
0236 1418923828 1074.9469
0237 1418927734 1072.7509
0238 1418931640 1071.2052
0239 1418935546 1066.1958
0240 1418939453 1069.5551
0241 1418943359 1065.0631
0242 1418947265 1061.9624
0243 1418951171 1058.4777
0244 1418955078 1057.6406
0245 1418958984 1057.0958
0246 1418962890 1051.7246
0247 1418966796 1053.4188
0248 1418970703 1050.3092
0249 1418974609 1048.7997
0250 1418978515 1050.7672
0251 1418982421 1044.4055
0252 1418986328 1048.2490
0253 1418990234 1046.0005
0254 1418994140 1043.0073
0255 1418998046 1042.7234
0256 1419001953 1040.0732
0257 1419005859 1039.5796
0258 1419009765 1043.6890
0259 1419013671 1045.8370
0260 1419017578 1043.2224
0261 1419021484 1038.5681
0262 1419025390 1039.6871
0263 1419029296 1043.3988
0264 1419033203 1037.4492
0265 1419037109 1042.5116
0266 1419041015 1039.9011
0267 1419044921 1036.5641
0268 1419048828 1038.3687
0269 1419052734 1041.9305
0270 1419056640 1044.9209
0271 1419060546 1041.7448
0272 1419064453 1044.0857
0273 1419068359 1042.4788
0274 1419072265 1043.4054
0275 1419076171 1045.6652
0276 1419080078 1047.7717
0277 1419083984 1049.1094
0278 1419087890 1048.3507
0279 1419091796 1048.8290
0280 1419095703 1047.6698
0281 1419099609 1049.7668
0282 1419103515 1052.8492
0283 1419107421 1053.7520
0284 1419111328 1049.2830
0285 1419115234 1056.0648
0286 1419119140 1054.6976
0287 1419123046 1061.6360
0288 1419126953 1056.5397
0289 1419130859 1060.6685
0290 1419134765 1062.4138
0291 1419138671 1061.9631
0292 1419142578 1065.5613
0293 1419146484 1062.7709
0294 1419150390 1067.2212
0295 1419154296 1070.2767
0296 1419158203 1069.8068
0297 1419162109 1071.3767
0298 1419166015 1072.7372
0299 1419169921 1073.3290
0300 1419173828 1078.5167
0301 1419177734 1077.8529
0302 1419181640 1075.4509
0303 1419185546 1085.4075
0304 1419189453 1085.6064
0305 1419193359 1086.8922
0306 1419197265 1084.6793
0307 1419201171 1087.5933
0308 1419205078 1088.0720
0309 1419208984 1095.2373
0310 1419212890 1088.7272
0311 1419216796 1089.9781
0312 1419220703 1092.5363
0313 1419224609 1097.1958
0314 1419228515 1100.5812
0315 1419232421 1100.3899
0316 1419236328 1099.3242
0317 1419240234 1098.3877
0318 1419244140 1100.2063
0319 1419248046 1100.8092
0320 1419251953 1104.5724
0321 1419255859 1099.4531
0322 1419259765 1104.0870
0323 1419263671 1101.3060
0324 1419267578 1103.7314
0325 1419271484 1109.2303
0326 1419275390 1109.7646
0327 1419279296 1105.6587
0328 1419283203 1109.1334
0329 1419287109 1112.2883
0330 1419291015 1107.8317
0331 1419294921 1108.6252
0332 1419298828 1112.9408
0333 1419302734 1111.0061
0334 1419306640 1110.4012
0335 1419310546 1111.1100
0336 1419314453 1118.3445
0337 1419318359 1117.6938
0338 1419322265 1115.9139
0339 1419326171 1115.3728
0340 1419330078 1112.7161
0341 1419333984 1118.4708
0342 1419337890 1117.6688
0343 1419341796 1114.7468
0344 1419345703 1116.3132
0345 1419349609 1113.3069
0346 1419353515 1116.9957
0347 1419357421 1118.2030
0348 1419361328 1118.8784
0349 1419365234 1114.7434
0350 1419369140 1120.3773
0351 1419373046 1117.3928
0352 1419376953 1118.4056
0353 1419380859 1119.4243
0354 1419384765 1118.3419
0355 1419388671 1119.9861
0356 1419392578 1115.2046
0357 1419396484 1115.1056
0358 1419400390 1118.3843
0359 1419404296 1122.1246
0360 1419408203 1122.6218
0361 1419412109 1120.5157
0362 1419416015 1120.2849
0363 1419419921 1122.1460
0364 1419423828 1121.5836
0365 1419427734 1119.2375
0366 1419431640 1123.6914
0367 1419435546 1124.8170
0368 1419439453 1123.0552
0369 1419443359 1121.7888
0370 1419447265 1120.4308
0371 1419451171 1122.0306
0372 1419455078 1121.4919
0373 1419458984 1120.9307
0374 1419462890 1121.2224
0375 1419466796 1121.2272
0376 1419470703 1123.9788
0377 1419474609 1125.5220
0378 1419478515 1124.9480
0379 1419482421 1123.6481
0380 1419486328 1123.1770
0381 1419490234 1120.8812
0382 1419494140 1119.1553
0383 1419498046 1123.7142
0384 1419501953 1127.7263
0385 1419505859 1124.1929
0386 1419509765 1123.8030
0387 1419513671 1124.6902
0388 1419517578 1122.7013
0389 1419521484 1123.8195
0390 1419525390 1125.6257
0391 1419529296 1124.7428
0392 1419533203 1123.7335
0393 1419537109 1119.9727
0394 1419541015 1120.8577
0395 1419544921 1119.7468
0396 1419548828 1121.4933
0397 1419552734 1127.2953
0398 1419556640 1128.4969
0399 1419560546 1127.2656
0400 1419564453 1128.7577
0401 1419568359 1125.3862
0402 1419572265 1130.9327
0403 1419576171 1120.5118
0404 1419580078 1126.4237
0405 1419583984 1127.8545
0406 1419587890 1126.2515
0407 1419591796 1122.5674
0408 1419595703 1123.8671
0409 1419599609 1125.6100
0410 1419603515 1125.6616
0411 1419607421 1121.9626
0412 1419611328 1124.9834
0413 1419615234 1125.8708
0414 1419619140 1126.0768
0415 1419623046 1123.6373
0416 1419626953 1126.4075
0417 1419630859 1121.6156
0418 1419634765 1127.9349
0419 1419638671 1124.6464
0420 1419642578 1126.2990
0421 1419646484 1126.5895
0422 1419650390 1119.8602
0423 1419654296 1116.9149
0424 1419658203 1117.3353
0425 1419662109 1122.7672
0426 1419666015 1120.5261
0427 1419669921 1119.2665
0428 1419673828 1117.3457
0429 1419677734 1116.0560
0430 1419681640 1113.9745
0431 1419685546 1115.6113
0432 1419689453 1121.2036
0433 1419693359 1117.9395
0434 1419697265 1112.8225
0435 1419701171 1117.7102
0436 1419705078 1115.1793
0437 1419708984 1115.0736
0438 1419712890 1111.2158
0439 1419716796 1111.3822
0440 1419720703 1110.4884
0441 1419724609 1110.3336
0442 1419728515 1110.2775
0443 1419732421 1106.2385
0444 1419736328 1104.0149
0445 1419740234 1104.3145
0446 1419744140 1104.2889
0447 1419748046 1104.9889
0448 1419751953 1101.7443
0449 1419755859 1103.2892
0450 1419759765 1104.0007
0451 1419763671 1098.3324
0452 1419767578 1094.4248
0453 1419771484 1097.7732
0454 1419775390 1098.1836
0455 1419779296 1094.0706
0456 1419783203 1091.7365
0457 1419787109 1094.2535
0458 1419791015 1094.5441
0459 1419794921 1095.8079
0460 1419798828 1092.4119
0461 1419802734 1086.7283
0462 1419806640 1087.6543
0463 1419810546 1086.7729
0464 1419814453 1087.7219
0465 1419818359 1085.9425
0466 1419822265 1082.3459
0467 1419826171 1085.6958
0468 1419830078 1083.7006
0469 1419833984 1084.0171
0470 1419837890 1079.7345
0471 1419841796 1079.3093
0472 1419845703 1080.5415
0473 1419849609 1078.6401
0474 1419853515 1074.5378
0475 1419857421 1072.6528
0476 1419861328 1077.1097
0477 1419865234 1073.1578
0478 1419869140 1072.6434
0479 1419873046 1076.4607
0480 1419876953 1070.8990
0481 1419880859 1067.5892
0482 1419884765 1072.1100
0483 1419888671 1070.1377
0484 1419892578 1068.8961
0485 1419896484 1067.3180
0486 1419900390 1068.8585
0487 1419904296 1069.1957
0488 1419908203 1066.7025
0489 1419912109 1066.8898
0490 1419916015 1069.2269
0491 1419919921 1068.7733
0492 1419923828 1065.7305
0493 1419927734 1068.5858
0494 1419931640 1067.7494
0495 1419935546 1064.3376
0496 1419939453 1063.4745
0497 1419943359 1068.7690
0498 1419947265 1059.6071
0499 1419951171 1056.2209
0500 1419955078 1066.8590
0501 1419958984 1069.0145
0502 1419962890 1064.2335
0503 1419966796 1058.5946
0504 1419970703 1057.9547
0505 1419974609 1061.2560
0506 1419978515 1064.0570
0507 1419982421 1059.8425
0508 1419986328 1059.8163
0509 1419990234 1064.1945
0510 1419994140 1058.8688
0511 1419998046 1062.1110
0512 1420001953 1061.4486
0513 1420005859 1060.4476
0514 1420009765 1058.4724
0515 1420013671 1060.3551
0516 1420017578 1059.1152
0517 1420021484 1060.4817
0518 1420025390 1057.7345
0519 1420029296 1061.2164
0520 1420033203 1061.4237
0521 1420037109 1064.2249
0522 1420041015 1063.4363
0523 1420044921 1065.3733
0524 1420048828 1061.3743
0525 1420052734 1059.1528
0526 1420056640 1060.5890
0527 1420060546 1063.7124
0528 1420064453 1060.4366
0529 1420068359 1058.0135
0530 1420072265 1064.7876
0531 1420076171 1059.9785
0532 1420080078 1065.3428
0533 1420083984 1063.5209
0534 1420087890 1065.4011
0535 1420091796 1064.6526
0536 1420095703 1061.3257
0537 1420099609 1064.2595
0538 1420103515 1067.3278
0539 1420107421 1062.6472
0540 1420111328 1062.5538
0541 1420115234 1062.6113
0542 1420119140 1066.5206
0543 1420123046 1064.1356
0544 1420126953 1063.0682
0545 1420130859 1060.8715
0546 1420134765 1063.4142
0547 1420138671 1063.6912
0548 1420142578 1061.0212
0549 1420146484 1060.9520
0550 1420150390 1064.2021
0551 1420154296 1062.7710
0552 1420158203 1061.1908
0553 1420162109 1062.8075
0554 1420166015 1065.0667
0555 1420169921 1064.3737
0556 1420173828 1056.2458
0557 1420177734 1057.7284
0558 1420181640 1061.2872
0559 1420185546 1061.3370
0560 1420189453 1061.0763
0561 1420193359 1058.3944
0562 1420197265 1059.4221
0563 1420201171 1059.6628
0564 1420205078 1057.8293
0565 1420208984 1054.6737
0566 1420212890 1054.4044
0567 1420216796 1060.3214
0568 1420220703 1057.8524
0569 1420224609 1059.1176
0570 1420228515 1056.3661
0571 1420232421 1052.6333
0572 1420236328 1057.9279
0573 1420240234 1051.2164
0574 1420244140 1051.7551
0575 1420248046 1055.0957
0576 1420251953 1052.4381
0577 1420255859 1051.1854
0578 1420259765 1051.5194
0579 1420263671 1049.2125
0580 1420267578 1051.0663
0581 1420271484 1047.6937
0582 1420275390 1051.9907
0583 1420279296 1047.5901
0584 1420283203 1051.5106
0585 1420287109 1049.4918
0586 1420291015 1048.3204
0587 1420294921 1048.1859
0588 1420298828 1046.0514
0589 1420302734 1044.8097
0590 1420306640 1046.7979
0591 1420310546 1042.4722
0592 1420314453 1044.6404
0593 1420318359 1044.7838
0594 1420322265 1045.6945
0595 1420326171 1043.8671
0596 1420330078 1045.9604
0597 1420333984 1042.3867
0598 1420337890 1041.9363
0599 1420341796 1045.7346
0600 1420345703 1041.5146
0601 1420349609 1039.0847
0602 1420353515 1039.7925
0603 1420357421 1040.0461
0604 1420361328 1040.9653
0605 1420365234 1039.1982
0606 1420369140 1036.1833
0607 1420373046 1037.7572
0608 1420376953 1035.7008
0609 1420380859 1035.5651
0610 1420384765 1032.6061
0611 1420388671 1032.8499
0612 1420392578 1035.4451
0613 1420396484 1034.3574
0614 1420400390 1033.0200
0615 1420404296 1031.4950
0616 1420408203 1030.6394
0617 1420412109 1031.7975
0618 1420416015 1029.8011
0619 1420419921 1028.0327
0620 1420423828 1026.9817
0621 1420427734 1025.0549
0622 1420431640 1024.2777
0623 1420435546 1022.9346
0624 1420439453 1024.7620
0625 1420443359 1025.8353
0626 1420447265 1026.7611
0627 1420451171 1030.1938
0628 1420455078 1025.9048
0629 1420458984 1025.0756
0630 1420462890 1024.6719
0631 1420466796 1030.1392
0632 1420470703 1025.5360
0633 1420474609 1027.7316
0634 1420478515 1021.7571
0635 1420482421 1024.9323
0636 1420486328 1026.4720
0637 1420490234 1026.1219
0638 1420494140 1021.9030
0639 1420498046 1024.9424
0640 1420501953 1024.5404
0641 1420505859 1027.6324
0642 1420509765 1027.9458
0643 1420513671 1021.0853
0644 1420517578 1031.0852
0645 1420521484 1027.1724
0646 1420525390 1023.3310
0647 1420529296 1022.7682
0648 1420533203 1024.1594
0649 1420537109 1021.8726
0650 1420541015 1024.9897
0651 1420544921 1024.0665
0652 1420548828 1028.1584
0653 1420552734 1027.9728
0654 1420556640 1022.1022
0655 1420560546 1023.5107
0656 1420564453 1027.5752
0657 1420568359 1026.3994
0658 1420572265 1025.4912
0659 1420576171 1025.0997
0660 1420580078 1027.1964
0661 1420583984 1023.7026
0662 1420587890 1028.2153
0663 1420591796 1027.2617
0664 1420595703 1026.8335
0665 1420599609 1023.5352
0666 1420603515 1027.5197
0667 1420607421 1024.5780
0668 1420611328 1027.1189
0669 1420615234 1025.9399
0670 1420619140 1022.2728
0671 1420623046 1026.3060
0672 1420626953 1025.2776
0673 1420630859 1026.1509
0674 1420634765 1028.9114
0675 1420638671 1026.5110
0676 1420642578 1022.5170
0677 1420646484 1027.5946
0678 1420650390 1023.4889
0679 1420654296 1026.5134
0680 1420658203 1023.3037
0681 1420662109 1020.8173
0682 1420666015 1025.7913
0683 1420669921 1030.5283
0684 1420673828 1022.9851
0685 1420677734 1021.5226
0686 1420681640 1022.1008
0687 1420685546 1021.4827
0688 1420689453 1023.4821
0689 1420693359 1023.9692
0690 1420697265 1021.1711
0691 1420701171 1019.5721
0692 1420705078 1019.8353
0693 1420708984 1020.9863
0694 1420712890 1023.2708
0695 1420716796 1022.7207
0696 1420720703 1019.4814
0697 1420724609 1021.3644
0698 1420728515 1015.2266
0699 1420732421 1015.3151
0700 1420736328 1019.7374
0701 1420740234 1015.0507
0702 1420744140 1018.4822
0703 1420748046 1019.8015
0704 1420751953 1015.7885
0705 1420755859 1016.7300
0706 1420759765 1013.1763
0707 1420763671 1018.6340
0708 1420767578 1011.5391
0709 1420771484 1010.3055
0710 1420775390 1013.8665
0711 1420779296 1011.8126
0712 1420783203 1010.5314
0713 1420787109 1008.1780
0714 1420791015 1011.8120
0715 1420794921 1012.9067
0716 1420798828 1010.1607
0717 1420802734 1010.0745
0718 1420806640 1007.8231
0719 1420810546 1008.2727
0720 1420814453 1007.7551
0721 1420818359 1006.8710
0722 1420822265 1007.4490
0723 1420826171 1010.3279
0724 1420830078 1004.6895
0725 1420833984 1001.6796
0726 1420837890 1002.7548
0727 1420841796 1005.6937
