# File: 20-11-28T180259.hot
# NOTEA     = RSP1A+GPIOLabs Pi #1 On Horn
# NOTEB     = Sdrplay 8 MHz Test
# OBSERVER  = Science Aficionado
# DEVICE    = SDRPlay RSP1A
# DATADIR   = ../data/
# SITE      = RSP1A+GPIOLabs Pi #1 On Horn
# CITY      = Green Bank
# REGION    = West Virginia
# COUNTRY   = US
# TELTYPE   = Bubble Wrap  Horn
# FRAME     = TOPO
# GAIN1     = 0.0
# GAIN2     = 12.0
# GAIN3     = 12.0
# GAIN4     = 0.0
# Count     = 360000
# CenterFreq= 1422000000.0
# Bandwidth = 8000000.0
# Duration  = 157.267097
# DeltaX    = 5859.375
# TSYS      = 200.0
# TRX       = 100.0
# TRMS      = 2.0
# TINT      = 1.0
# KPERC     = 100.0
# GAINFACT  = 1.0
# BUNIT     = Counts
# NCHAN     = 2048
# NSPEC     = 1
# NTIME     = 0
# NSAMPLES  = 0
# EPEAK     = 4.10875183718
# ERMS      = 0.995973393526
# EMJD      = 58568.808999981004 
# REFCHAN   = 1024.0
# REFSAMPL  = 256.0
# NAVE      = 600
# NMEDIAN   = 1024
# Fft_rate  = 5000
# UTC       = 2020-11-28 18:02:59.990848
# SECONDS   =       0.0000000000 
# LST       = 17:16:00.880
# AZ        = 180.0
# EL        = -40.0
# TELLON    = -79:50:22.920
# TELLAT    = +38:25:59.160
# RA        = 05:46:55.250
# DEC       = -88:27:48.600
# GALLON    = 301:16:01.80
# GALLAT    = -27:32:43.00
# ALT_SUN   = +28:43:31.9
# AZ_SUN    = +194:43:36.0
# ETAA      = 0.8
# ETAB      = 0.99
# POLANGLE  = 0.0
# TELSIZEAM = 1.0
# TELSIZEBM = 1.0
# AST_VERS  = 05.01
0000 1418001953 0.8199
0001 1418005859 0.8176
0002 1418009765 0.8259
0003 1418013671 0.8249
0004 1418017578 0.8281
0005 1418021484 0.8338
0006 1418025390 0.8305
0007 1418029296 0.8344
0008 1418033203 0.8337
0009 1418037109 0.8388
0010 1418041015 0.8359
0011 1418044921 0.8386
0012 1418048828 0.8413
0013 1418052734 0.8433
0014 1418056640 0.8459
0015 1418060546 0.8508
0016 1418064453 0.8491
0017 1418068359 0.8502
0018 1418072265 0.8471
0019 1418076171 0.8467
0020 1418080078 0.8464
0021 1418083984 0.8409
0022 1418087890 0.8345
0023 1418091796 0.8335
0024 1418095703 0.8247
0025 1418099609 0.8171
0026 1418103515 0.8018
0027 1418107421 0.7938
0028 1418111328 0.7785
0029 1418115234 0.7664
0030 1418119140 0.7480
0031 1418123046 0.7266
0032 1418126953 0.7069
0033 1418130859 0.6817
0034 1418134765 0.6552
0035 1418138671 0.6267
0036 1418142578 0.5964
0037 1418146484 0.5643
0038 1418150390 0.5303
0039 1418154296 0.4893
0040 1418158203 0.4515
0041 1418162109 0.4126
0042 1418166015 0.3713
0043 1418169921 0.3294
0044 1418173828 0.2875
0045 1418177734 0.2460
0046 1418181640 0.2053
0047 1418185546 0.1664
0048 1418189453 0.1305
0049 1418193359 0.0976
0050 1418197265 0.0704
0051 1418201171 0.0498
0052 1418205078 0.0362
0053 1418208984 0.0324
0054 1418212890 0.0398
0055 1418216796 0.0604
0056 1418220703 0.0967
0057 1418224609 0.1504
0058 1418228515 0.2235
0059 1418232421 0.3227
0060 1418236328 0.4463
0061 1418240234 0.6005
0062 1418244140 0.7828
0063 1418248046 1.0125
0064 1418251953 1.2829
0065 1418255859 1.5942
0066 1418259765 1.9556
0067 1418263671 2.3684
0068 1418267578 2.8461
0069 1418271484 3.4037
0070 1418275390 4.0247
0071 1418279296 4.7004
0072 1418283203 5.4780
0073 1418287109 6.3630
0074 1418291015 7.3004
0075 1418294921 8.4185
0076 1418298828 9.6086
0077 1418302734 10.8934
0078 1418306640 12.3422
0079 1418310546 13.8821
0080 1418314453 15.6340
0081 1418318359 17.4896
0082 1418322265 19.5017
0083 1418326171 21.6658
0084 1418330078 24.1535
0085 1418333984 26.6958
0086 1418337890 29.4150
0087 1418341796 32.4838
0088 1418345703 35.5949
0089 1418349609 38.7853
0090 1418353515 42.6510
0091 1418357421 46.8763
0092 1418361328 50.8337
0093 1418365234 55.1941
0094 1418369140 59.8612
0095 1418373046 65.1317
0096 1418376953 70.1258
0097 1418380859 75.7402
0098 1418384765 81.8022
0099 1418388671 87.5051
0100 1418392578 94.0088
0101 1418396484 100.6910
0102 1418400390 107.9092
0103 1418404296 115.2840
0104 1418408203 123.1475
0105 1418412109 131.3981
0106 1418416015 139.5464
0107 1418419921 148.0698
0108 1418423828 157.6141
0109 1418427734 167.1292
0110 1418431640 177.3726
0111 1418435546 187.0490
0112 1418439453 197.2399
0113 1418443359 208.9146
0114 1418447265 219.6158
0115 1418451171 231.3020
0116 1418455078 242.5977
0117 1418458984 253.2873
0118 1418462890 268.2462
0119 1418466796 280.6681
0120 1418470703 292.4598
0121 1418474609 305.4991
0122 1418478515 319.2415
0123 1418482421 334.2735
0124 1418486328 348.3973
0125 1418490234 362.7422
0126 1418494140 375.0411
0127 1418498046 390.7364
0128 1418501953 406.0126
0129 1418505859 421.3014
0130 1418509765 437.6173
0131 1418513671 452.0177
0132 1418517578 467.8476
0133 1418521484 484.1280
0134 1418525390 499.9484
0135 1418529296 514.5732
0136 1418533203 530.9747
0137 1418537109 548.4676
0138 1418541015 564.0475
0139 1418544921 581.6819
0140 1418548828 597.5402
0141 1418552734 614.1265
0142 1418556640 628.6594
0143 1418560546 646.5792
0144 1418564453 659.3809
0145 1418568359 676.9048
0146 1418572265 689.0045
0147 1418576171 707.2140
0148 1418580078 722.2913
0149 1418583984 738.8248
0150 1418587890 753.6133
0151 1418591796 771.6861
0152 1418595703 785.9683
0153 1418599609 797.2244
0154 1418603515 812.4303
0155 1418607421 826.0907
0156 1418611328 842.7731
0157 1418615234 856.0563
0158 1418619140 868.0345
0159 1418623046 878.3297
0160 1418626953 895.5477
0161 1418630859 903.0269
0162 1418634765 919.4791
0163 1418638671 929.0724
0164 1418642578 936.3700
0165 1418646484 947.0802
0166 1418650390 961.7605
0167 1418654296 969.4082
0168 1418658203 981.4732
0169 1418662109 988.6059
0170 1418666015 997.4446
0171 1418669921 1002.4771
0172 1418673828 1014.3541
0173 1418677734 1023.5466
0174 1418681640 1027.0458
0175 1418685546 1036.9824
0176 1418689453 1040.7224
0177 1418693359 1050.4427
0178 1418697265 1054.1466
0179 1418701171 1062.5057
0180 1418705078 1067.2446
0181 1418708984 1069.8286
0182 1418712890 1074.5341
0183 1418716796 1080.7489
0184 1418720703 1083.0736
0185 1418724609 1087.6229
0186 1418728515 1088.1613
0187 1418732421 1089.6194
0188 1418736328 1091.1943
0189 1418740234 1101.0410
0190 1418744140 1097.6445
0191 1418748046 1101.5128
0192 1418751953 1102.1000
0193 1418755859 1101.2142
0194 1418759765 1097.2172
0195 1418763671 1103.2598
0196 1418767578 1100.9885
0197 1418771484 1100.3917
0198 1418775390 1102.1960
0199 1418779296 1100.2030
0200 1418783203 1096.8983
0201 1418787109 1095.4980
0202 1418791015 1093.7981
0203 1418794921 1094.2448
0204 1418798828 1092.4281
0205 1418802734 1090.0300
0206 1418806640 1088.6572
0207 1418810546 1084.6110
0208 1418814453 1083.2375
0209 1418818359 1077.5542
0210 1418822265 1079.0272
0211 1418826171 1074.6995
0212 1418830078 1068.3765
0213 1418833984 1070.0433
0214 1418837890 1072.5193
0215 1418841796 1060.8920
0216 1418845703 1058.9393
0217 1418849609 1054.3188
0218 1418853515 1053.2231
0219 1418857421 1050.1433
0220 1418861328 1045.5597
0221 1418865234 1045.4744
0222 1418869140 1040.0541
0223 1418873046 1038.2072
0224 1418876953 1037.6776
0225 1418880859 1032.8325
0226 1418884765 1029.1357
0227 1418888671 1023.6856
0228 1418892578 1022.5267
0229 1418896484 1023.7634
0230 1418900390 1020.6663
0231 1418904296 1014.3182
0232 1418908203 1007.3708
0233 1418912109 1009.6816
0234 1418916015 1006.8560
0235 1418919921 1005.0021
0236 1418923828 1002.0284
0237 1418927734 1001.1647
0238 1418931640 994.8771
0239 1418935546 993.1623
0240 1418939453 993.5794
0241 1418943359 988.5124
0242 1418947265 988.7189
0243 1418951171 988.4348
0244 1418955078 989.6326
0245 1418958984 983.2935
0246 1418962890 980.4268
0247 1418966796 980.1424
0248 1418970703 976.5764
0249 1418974609 975.2635
0250 1418978515 975.0781
0251 1418982421 972.3734
0252 1418986328 974.0448
0253 1418990234 969.9975
0254 1418994140 968.9703
0255 1418998046 968.6823
0256 1419001953 974.6724
0257 1419005859 973.9145
0258 1419009765 969.7386
0259 1419013671 969.3708
0260 1419017578 965.2992
0261 1419021484 968.8469
0262 1419025390 963.8591
0263 1419029296 963.8996
0264 1419033203 965.3027
0265 1419037109 968.1037
0266 1419041015 968.3970
0267 1419044921 967.7696
0268 1419048828 964.4832
0269 1419052734 965.6207
0270 1419056640 967.9777
0271 1419060546 968.4882
0272 1419064453 966.9070
0273 1419068359 967.2016
0274 1419072265 972.3692
0275 1419076171 971.5118
0276 1419080078 970.5208
0277 1419083984 975.9141
0278 1419087890 975.8961
0279 1419091796 975.2966
0280 1419095703 972.8516
0281 1419099609 977.4026
0282 1419103515 978.3118
0283 1419107421 981.0021
0284 1419111328 978.8259
0285 1419115234 984.9805
0286 1419119140 989.2624
0287 1419123046 985.3038
0288 1419126953 988.3108
0289 1419130859 988.7103
0290 1419134765 989.6247
0291 1419138671 988.0516
0292 1419142578 998.0815
0293 1419146484 994.4480
0294 1419150390 990.7269
0295 1419154296 996.4240
0296 1419158203 999.4247
0297 1419162109 995.2707
0298 1419166015 996.8133
0299 1419169921 998.2128
0300 1419173828 999.6718
0301 1419177734 1001.0572
0302 1419181640 1006.2016
0303 1419185546 1007.7413
0304 1419189453 1006.4977
0305 1419193359 1008.2361
0306 1419197265 1010.1650
0307 1419201171 1009.1189
0308 1419205078 1013.4984
0309 1419208984 1014.4420
0310 1419212890 1016.2171
0311 1419216796 1015.8310
0312 1419220703 1015.0528
0313 1419224609 1017.1895
0314 1419228515 1018.0687
0315 1419232421 1015.9162
0316 1419236328 1019.6296
0317 1419240234 1024.6808
0318 1419244140 1020.6781
0319 1419248046 1021.6364
0320 1419251953 1022.9507
0321 1419255859 1024.7687
0322 1419259765 1029.7417
0323 1419263671 1027.8245
0324 1419267578 1029.7180
0325 1419271484 1028.2350
0326 1419275390 1030.8829
0327 1419279296 1028.7461
0328 1419283203 1031.8577
0329 1419287109 1030.5271
0330 1419291015 1036.6169
0331 1419294921 1034.7173
0332 1419298828 1031.1399
0333 1419302734 1031.7543
0334 1419306640 1035.4261
0335 1419310546 1036.5284
0336 1419314453 1036.8641
0337 1419318359 1037.5435
0338 1419322265 1037.7521
0339 1419326171 1036.8326
0340 1419330078 1037.2993
0341 1419333984 1041.9098
0342 1419337890 1040.9155
0343 1419341796 1038.2207
0344 1419345703 1039.4938
0345 1419349609 1038.5267
0346 1419353515 1037.5701
0347 1419357421 1038.1921
0348 1419361328 1038.9885
0349 1419365234 1039.1390
0350 1419369140 1039.3458
0351 1419373046 1041.6497
0352 1419376953 1045.2673
0353 1419380859 1043.3379
0354 1419384765 1043.5270
0355 1419388671 1040.8843
0356 1419392578 1040.4474
0357 1419396484 1043.9769
0358 1419400390 1042.3562
0359 1419404296 1042.3101
0360 1419408203 1039.7795
0361 1419412109 1040.9801
0362 1419416015 1040.3757
0363 1419419921 1040.3724
0364 1419423828 1044.1377
0365 1419427734 1047.7487
0366 1419431640 1045.6912
0367 1419435546 1039.9713
0368 1419439453 1041.7800
0369 1419443359 1043.8185
0370 1419447265 1045.0604
0371 1419451171 1046.9243
0372 1419455078 1047.2317
0373 1419458984 1041.1331
0374 1419462890 1042.3051
0375 1419466796 1044.0559
0376 1419470703 1037.6814
0377 1419474609 1043.5680
0378 1419478515 1044.0637
0379 1419482421 1048.3785
0380 1419486328 1047.6011
0381 1419490234 1041.1558
0382 1419494140 1046.9177
0383 1419498046 1044.4480
0384 1419501953 1044.2261
0385 1419505859 1044.0680
0386 1419509765 1046.7284
0387 1419513671 1045.3320
0388 1419517578 1051.4242
0389 1419521484 1046.4189
0390 1419525390 1044.2008
0391 1419529296 1045.5669
0392 1419533203 1047.5400
0393 1419537109 1045.4884
0394 1419541015 1044.8947
0395 1419544921 1043.5082
0396 1419548828 1045.0707
0397 1419552734 1047.4752
0398 1419556640 1044.0204
0399 1419560546 1046.3419
0400 1419564453 1049.1263
0401 1419568359 1046.9019
0402 1419572265 1046.0300
0403 1419576171 1050.5077
0404 1419580078 1051.1239
0405 1419583984 1047.1681
0406 1419587890 1046.5022
0407 1419591796 1045.6986
0408 1419595703 1048.1027
0409 1419599609 1045.0675
0410 1419603515 1049.3466
0411 1419607421 1048.8687
0412 1419611328 1044.3346
0413 1419615234 1047.7335
0414 1419619140 1046.2120
0415 1419623046 1048.1086
0416 1419626953 1046.8781
0417 1419630859 1044.9150
0418 1419634765 1042.6366
0419 1419638671 1040.3605
0420 1419642578 1041.9253
0421 1419646484 1043.1384
0422 1419650390 1043.5186
0423 1419654296 1044.7770
0424 1419658203 1040.0746
0425 1419662109 1043.7731
0426 1419666015 1039.0370
0427 1419669921 1039.1022
0428 1419673828 1038.1672
0429 1419677734 1039.7291
0430 1419681640 1038.5518
0431 1419685546 1040.7382
0432 1419689453 1038.1938
0433 1419693359 1038.5071
0434 1419697265 1036.3002
0435 1419701171 1035.7067
0436 1419705078 1031.3217
0437 1419708984 1039.1184
0438 1419712890 1035.7748
0439 1419716796 1035.3750
0440 1419720703 1034.9539
0441 1419724609 1035.4390
0442 1419728515 1029.5215
0443 1419732421 1027.9895
0444 1419736328 1030.0360
0445 1419740234 1029.5959
0446 1419744140 1028.0459
0447 1419748046 1027.4064
0448 1419751953 1023.9510
0449 1419755859 1026.5132
0450 1419759765 1026.2915
0451 1419763671 1023.3430
0452 1419767578 1026.4637
0453 1419771484 1023.7128
0454 1419775390 1020.5397
0455 1419779296 1018.3704
0456 1419783203 1021.7499
0457 1419787109 1017.2596
0458 1419791015 1019.1252
0459 1419794921 1017.5428
0460 1419798828 1018.6200
0461 1419802734 1012.8138
0462 1419806640 1011.8159
0463 1419810546 1013.1752
0464 1419814453 1012.8298
0465 1419818359 1012.0568
0466 1419822265 1011.4977
0467 1419826171 1006.0327
0468 1419830078 1006.7097
0469 1419833984 1007.4349
0470 1419837890 1006.5786
0471 1419841796 1007.3480
0472 1419845703 1002.5568
0473 1419849609 1001.5918
0474 1419853515 1000.8969
0475 1419857421 1001.8649
0476 1419861328 999.7114
0477 1419865234 998.6719
0478 1419869140 998.9587
0479 1419873046 999.3234
0480 1419876953 1001.1557
0481 1419880859 1000.6077
0482 1419884765 999.0294
0483 1419888671 995.8397
0484 1419892578 995.2158
0485 1419896484 991.8677
0486 1419900390 992.8281
0487 1419904296 998.7635
0488 1419908203 993.8101
0489 1419912109 996.2652
0490 1419916015 990.4658
0491 1419919921 992.9644
0492 1419923828 990.2719
0493 1419927734 989.4799
0494 1419931640 989.1102
0495 1419935546 987.7841
0496 1419939453 990.3066
0497 1419943359 991.4351
0498 1419947265 991.2936
0499 1419951171 989.3690
0500 1419955078 990.0912
0501 1419958984 987.6087
0502 1419962890 990.7761
0503 1419966796 991.6150
0504 1419970703 991.1660
0505 1419974609 988.7847
0506 1419978515 991.3873
0507 1419982421 988.9242
0508 1419986328 987.1411
0509 1419990234 989.5996
0510 1419994140 986.4362
0511 1419998046 990.9507
0512 1420001953 985.3047
0513 1420005859 989.8461
0514 1420009765 988.5458
0515 1420013671 990.3235
0516 1420017578 985.5950
0517 1420021484 986.7754
0518 1420025390 989.7834
0519 1420029296 991.1442
0520 1420033203 989.2593
0521 1420037109 987.8943
0522 1420041015 985.2849
0523 1420044921 989.7550
0524 1420048828 986.5142
0525 1420052734 992.4772
0526 1420056640 988.6141
0527 1420060546 983.7611
0528 1420064453 989.3636
0529 1420068359 991.3964
0530 1420072265 990.2885
0531 1420076171 988.9089
0532 1420080078 991.3247
0533 1420083984 987.4271
0534 1420087890 990.4298
0535 1420091796 987.3425
0536 1420095703 987.5724
0537 1420099609 991.7166
0538 1420103515 988.4679
0539 1420107421 994.2877
0540 1420111328 990.5699
0541 1420115234 988.3155
0542 1420119140 988.2001
0543 1420123046 990.0996
0544 1420126953 986.8895
0545 1420130859 994.3911
0546 1420134765 995.7578
0547 1420138671 992.3599
0548 1420142578 992.8967
0549 1420146484 992.6729
0550 1420150390 994.5583
0551 1420154296 993.9869
0552 1420158203 989.3884
0553 1420162109 991.1625
0554 1420166015 988.0111
0555 1420169921 991.9401
0556 1420173828 989.6354
0557 1420177734 993.3903
0558 1420181640 987.3501
0559 1420185546 991.7585
0560 1420189453 992.2512
0561 1420193359 987.3584
0562 1420197265 988.0749
0563 1420201171 988.2947
0564 1420205078 988.5351
0565 1420208984 990.8476
0566 1420212890 989.5204
0567 1420216796 989.9926
0568 1420220703 987.9789
0569 1420224609 984.9770
0570 1420228515 982.2364
0571 1420232421 983.1426
0572 1420236328 984.1243
0573 1420240234 982.7942
0574 1420244140 982.4570
0575 1420248046 983.3055
0576 1420251953 981.2683
0577 1420255859 982.3427
0578 1420259765 982.3578
0579 1420263671 983.6760
0580 1420267578 983.6474
0581 1420271484 978.8927
0582 1420275390 976.9695
0583 1420279296 978.9437
0584 1420283203 975.2939
0585 1420287109 977.3297
0586 1420291015 974.5793
0587 1420294921 977.8799
0588 1420298828 978.4736
0589 1420302734 973.8682
0590 1420306640 978.2843
0591 1420310546 974.5698
0592 1420314453 973.4116
0593 1420318359 972.0275
0594 1420322265 971.0715
0595 1420326171 973.3702
0596 1420330078 969.9214
0597 1420333984 973.1836
0598 1420337890 972.5687
0599 1420341796 966.2003
0600 1420345703 975.3487
0601 1420349609 971.2895
0602 1420353515 969.5518
0603 1420357421 969.0195
0604 1420361328 968.8749
0605 1420365234 969.8085
0606 1420369140 971.4559
0607 1420373046 967.8900
0608 1420376953 967.7612
0609 1420380859 967.0809
0610 1420384765 964.0241
0611 1420388671 966.5419
0612 1420392578 963.0276
0613 1420396484 964.4235
0614 1420400390 967.7365
0615 1420404296 961.5690
0616 1420408203 962.3079
0617 1420412109 959.7823
0618 1420416015 959.8221
0619 1420419921 954.7609
0620 1420423828 960.3977
0621 1420427734 961.6082
0622 1420431640 957.3660
0623 1420435546 959.0865
0624 1420439453 957.3238
0625 1420443359 958.2126
0626 1420447265 957.5504
0627 1420451171 955.1161
0628 1420455078 955.3830
0629 1420458984 954.2881
0630 1420462890 953.7645
0631 1420466796 956.4960
0632 1420470703 956.6770
0633 1420474609 952.5424
0634 1420478515 958.8386
0635 1420482421 955.9428
0636 1420486328 955.9404
0637 1420490234 956.3756
0638 1420494140 958.0844
0639 1420498046 955.4620
0640 1420501953 953.4395
0641 1420505859 951.4742
0642 1420509765 957.4204
0643 1420513671 952.1854
0644 1420517578 952.2040
0645 1420521484 954.6480
0646 1420525390 953.5416
0647 1420529296 956.4012
0648 1420533203 956.1193
0649 1420537109 959.3306
0650 1420541015 955.8693
0651 1420544921 954.7138
0652 1420548828 955.6141
0653 1420552734 953.2387
0654 1420556640 953.8818
0655 1420560546 958.3815
0656 1420564453 959.6835
0657 1420568359 956.6311
0658 1420572265 955.7388
0659 1420576171 960.5234
0660 1420580078 955.8760
0661 1420583984 955.1862
0662 1420587890 955.0469
0663 1420591796 958.4836
0664 1420595703 958.1970
0665 1420599609 955.9501
0666 1420603515 958.2764
0667 1420607421 956.4617
0668 1420611328 958.0099
0669 1420615234 958.1047
0670 1420619140 957.2656
0671 1420623046 957.1667
0672 1420626953 957.0900
0673 1420630859 958.3835
0674 1420634765 957.6254
0675 1420638671 955.8925
0676 1420642578 956.9422
0677 1420646484 951.8893
0678 1420650390 953.6471
0679 1420654296 954.2710
0680 1420658203 955.0231
0681 1420662109 955.9767
0682 1420666015 954.1654
0683 1420669921 958.7791
0684 1420673828 954.4862
0685 1420677734 951.8319
0686 1420681640 951.5270
0687 1420685546 950.5075
0688 1420689453 952.9547
0689 1420693359 954.3139
0690 1420697265 954.5663
0691 1420701171 952.2921
0692 1420705078 949.6724
0693 1420708984 951.9849
0694 1420712890 953.8442
0695 1420716796 952.8062
0696 1420720703 950.0292
0697 1420724609 949.2996
0698 1420728515 951.4340
0699 1420732421 949.2485
0700 1420736328 946.2017
0701 1420740234 946.6858
0702 1420744140 946.2321
0703 1420748046 946.3361
0704 1420751953 947.0029
0705 1420755859 944.5831
0706 1420759765 945.7842
0707 1420763671 943.7550
0708 1420767578 946.2132
0709 1420771484 944.8582
0710 1420775390 943.3881
0711 1420779296 945.8896
0712 1420783203 944.1480
0713 1420787109 939.2099
0714 1420791015 943.2904
0715 1420794921 941.3042
0716 1420798828 940.2108
0717 1420802734 942.9379
0718 1420806640 937.3457
0719 1420810546 936.3520
0720 1420814453 941.5911
0721 1420818359 936.5653
0722 1420822265 941.7261
0723 1420826171 937.9017
0724 1420830078 936.2613
0725 1420833984 937.0587
0726 1420837890 934.7372
0727 1420841796 940.1708
0728 1420845703 934.3359
0729 1420849609 933.5476
0730 1420853515 937.1096
0731 1420857421 937.1158
0732 1420861328 939.1584
0733 1420865234 935.8139
0734 1420869140 936.7543
0735 1420873046 936.4390
0736 1420876953 934.1935
0737 1420880859 936.6507
0738 1420884765 935.6252
0739 1420888671 933.5371
0740 1420892578 935.7808
