# File: 20-11-28T182635.hot
# NOTEA     = RSP1A+GPIOLabs Pi #1 On Horn
# NOTEB     = Sdrplay 8 MHz Test
# OBSERVER  = Science Aficionado
# DEVICE    = SDRPlay RSP1A
# DATADIR   = ../data/
# SITE      = RSP1A+GPIOLabs Pi #1 On Horn
# CITY      = Green Bank
# REGION    = West Virginia
# COUNTRY   = US
# TELTYPE   = Bubble Wrap  Horn
# FRAME     = TOPO
# GAIN1     = 0.0
# GAIN2     = 12.0
# GAIN3     = 12.0
# GAIN4     = 0.0
# Count     = 360000
# CenterFreq= 1422000000.0
# Bandwidth = 8000000.0
# Duration  = 157.295293
# DeltaX    = 5859.375
# TSYS      = 200.0
# TRX       = 100.0
# TRMS      = 2.0
# TINT      = 1.0
# KPERC     = 100.0
# GAINFACT  = 1.0
# BUNIT     = Counts
# NCHAN     = 2048
# NSPEC     = 1
# NTIME     = 0
# NSAMPLES  = 0
# EPEAK     = 4.10875183718
# ERMS      = 0.995973393526
# EMJD      = 58568.808999981004 
# REFCHAN   = 1024.0
# REFSAMPL  = 256.0
# NAVE      = 600
# NMEDIAN   = 1024
# Fft_rate  = 5000
# UTC       = 2020-11-28 18:26:35.562409
# SECONDS   =       0.0000000000 
# LST       = 17:39:40.330
# AZ        = 180.0
# EL        = -40.0
# TELLON    = -79:50:22.920
# TELLAT    = +38:25:59.160
# RA        = 06:10:36.950
# DEC       = -88:26:24.800
# GALLON    = 301:12:10.40
# GALLAT    = -27:23:38.50
# ALT_SUN   = +27:19:01.8
# AZ_SUN    = +200:43:59.1
# ETAA      = 0.8
# ETAB      = 0.99
# POLANGLE  = 0.0
# TELSIZEAM = 1.0
# TELSIZEBM = 1.0
# AST_VERS  = 05.01
0000 1418001953 0.8446
0001 1418005859 0.8437
0002 1418009765 0.8454
0003 1418013671 0.8466
0004 1418017578 0.8507
0005 1418021484 0.8500
0006 1418025390 0.8508
0007 1418029296 0.8545
0008 1418033203 0.8589
0009 1418037109 0.8563
0010 1418041015 0.8614
0011 1418044921 0.8638
0012 1418048828 0.8644
0013 1418052734 0.8673
0014 1418056640 0.8693
0015 1418060546 0.8702
0016 1418064453 0.8698
0017 1418068359 0.8713
0018 1418072265 0.8692
0019 1418076171 0.8683
0020 1418080078 0.8673
0021 1418083984 0.8659
0022 1418087890 0.8633
0023 1418091796 0.8574
0024 1418095703 0.8482
0025 1418099609 0.8382
0026 1418103515 0.8311
0027 1418107421 0.8154
0028 1418111328 0.8028
0029 1418115234 0.7893
0030 1418119140 0.7742
0031 1418123046 0.7502
0032 1418126953 0.7277
0033 1418130859 0.7012
0034 1418134765 0.6755
0035 1418138671 0.6478
0036 1418142578 0.6143
0037 1418146484 0.5799
0038 1418150390 0.5422
0039 1418154296 0.5078
0040 1418158203 0.4667
0041 1418162109 0.4227
0042 1418166015 0.3824
0043 1418169921 0.3381
0044 1418173828 0.2969
0045 1418177734 0.2538
0046 1418181640 0.2112
0047 1418185546 0.1713
0048 1418189453 0.1336
0049 1418193359 0.1006
0050 1418197265 0.0721
0051 1418201171 0.0506
0052 1418205078 0.0369
0053 1418208984 0.0330
0054 1418212890 0.0405
0055 1418216796 0.0616
0056 1418220703 0.0987
0057 1418224609 0.1546
0058 1418228515 0.2309
0059 1418232421 0.3312
0060 1418236328 0.4602
0061 1418240234 0.6197
0062 1418244140 0.8125
0063 1418248046 1.0415
0064 1418251953 1.3149
0065 1418255859 1.6383
0066 1418259765 2.0191
0067 1418263671 2.4464
0068 1418267578 2.9339
0069 1418271484 3.4994
0070 1418275390 4.1388
0071 1418279296 4.8605
0072 1418283203 5.6475
0073 1418287109 6.5589
0074 1418291015 7.5553
0075 1418294921 8.6642
0076 1418298828 9.8903
0077 1418302734 11.2412
0078 1418306640 12.6940
0079 1418310546 14.3325
0080 1418314453 16.1122
0081 1418318359 17.9776
0082 1418322265 20.2285
0083 1418326171 22.3875
0084 1418330078 24.8214
0085 1418333984 27.4911
0086 1418337890 30.3764
0087 1418341796 33.4644
0088 1418345703 36.7614
0089 1418349609 40.2566
0090 1418353515 44.0481
0091 1418357421 47.9994
0092 1418361328 52.2801
0093 1418365234 56.8251
0094 1418369140 61.7177
0095 1418373046 67.0090
0096 1418376953 72.3216
0097 1418380859 78.3068
0098 1418384765 84.0271
0099 1418388671 90.2998
0100 1418392578 97.0755
0101 1418396484 103.8396
0102 1418400390 111.1239
0103 1418404296 118.8678
0104 1418408203 126.9535
0105 1418412109 135.0736
0106 1418416015 144.0070
0107 1418419921 152.8747
0108 1418423828 161.5944
0109 1418427734 172.2165
0110 1418431640 182.0888
0111 1418435546 193.2684
0112 1418439453 203.4787
0113 1418443359 215.0392
0114 1418447265 225.7538
0115 1418451171 237.8793
0116 1418455078 250.4192
0117 1418458984 264.0511
0118 1418462890 275.7342
0119 1418466796 288.3740
0120 1418470703 301.2790
0121 1418474609 315.9628
0122 1418478515 328.6422
0123 1418482421 343.5537
0124 1418486328 358.6062
0125 1418490234 373.8960
0126 1418494140 388.4699
0127 1418498046 403.4917
0128 1418501953 419.2394
0129 1418505859 436.6539
0130 1418509765 451.2869
0131 1418513671 466.3405
0132 1418517578 484.3407
0133 1418521484 501.4010
0134 1418525390 515.5889
0135 1418529296 532.3464
0136 1418533203 549.4548
0137 1418537109 565.4911
0138 1418541015 583.0869
0139 1418544921 598.9150
0140 1418548828 616.2911
0141 1418552734 636.1693
0142 1418556640 649.9352
0143 1418560546 667.8131
0144 1418564453 684.9863
0145 1418568359 700.9136
0146 1418572265 713.4507
0147 1418576171 729.3741
0148 1418580078 748.8790
0149 1418583984 763.8684
0150 1418587890 777.0945
0151 1418591796 797.0966
0152 1418595703 807.4922
0153 1418599609 824.7435
0154 1418603515 838.4348
0155 1418607421 849.8566
0156 1418611328 869.2966
0157 1418615234 883.9008
0158 1418619140 895.1689
0159 1418623046 911.3911
0160 1418626953 923.6498
0161 1418630859 936.9153
0162 1418634765 944.8670
0163 1418638671 958.9517
0164 1418642578 970.3607
0165 1418646484 983.6570
0166 1418650390 994.1121
0167 1418654296 1002.5926
0168 1418658203 1011.4122
0169 1418662109 1023.0698
0170 1418666015 1036.6263
0171 1418669921 1046.2869
0172 1418673828 1048.0924
0173 1418677734 1054.4363
0174 1418681640 1060.5927
0175 1418685546 1071.3853
0176 1418689453 1081.9473
0177 1418693359 1084.7815
0178 1418697265 1091.3563
0179 1418701171 1097.8844
0180 1418705078 1104.2423
0181 1418708984 1106.1034
0182 1418712890 1113.0767
0183 1418716796 1110.4504
0184 1418720703 1117.7913
0185 1418724609 1123.6692
0186 1418728515 1124.7579
0187 1418732421 1122.4005
0188 1418736328 1127.9551
0189 1418740234 1132.7800
0190 1418744140 1131.7520
0191 1418748046 1134.3669
0192 1418751953 1132.1580
0193 1418755859 1141.0824
0194 1418759765 1143.7380
0195 1418763671 1140.8043
0196 1418767578 1140.2643
0197 1418771484 1136.3461
0198 1418775390 1132.7804
0199 1418779296 1132.6256
0200 1418783203 1131.2107
0201 1418787109 1131.4904
0202 1418791015 1131.1870
0203 1418794921 1127.1530
0204 1418798828 1124.0018
0205 1418802734 1127.8881
0206 1418806640 1123.5082
0207 1418810546 1118.3160
0208 1418814453 1117.6981
0209 1418818359 1116.0549
0210 1418822265 1112.9390
0211 1418826171 1108.0065
0212 1418830078 1101.9670
0213 1418833984 1105.9523
0214 1418837890 1102.8827
0215 1418841796 1093.7810
0216 1418845703 1092.8845
0217 1418849609 1091.2700
0218 1418853515 1090.3051
0219 1418857421 1090.8811
0220 1418861328 1088.6711
0221 1418865234 1078.8199
0222 1418869140 1077.9508
0223 1418873046 1071.4379
0224 1418876953 1066.6726
0225 1418880859 1069.7886
0226 1418884765 1065.9825
0227 1418888671 1061.3613
0228 1418892578 1056.2366
0229 1418896484 1055.8876
0230 1418900390 1050.1836
0231 1418904296 1046.3826
0232 1418908203 1043.2960
0233 1418912109 1040.7493
0234 1418916015 1036.3787
0235 1418919921 1036.9475
0236 1418923828 1036.6685
0237 1418927734 1033.5637
0238 1418931640 1031.0199
0239 1418935546 1030.3385
0240 1418939453 1027.6355
0241 1418943359 1022.0215
0242 1418947265 1021.4208
0243 1418951171 1016.0731
0244 1418955078 1018.2297
0245 1418958984 1013.4238
0246 1418962890 1011.6965
0247 1418966796 1012.3495
0248 1418970703 1010.2999
0249 1418974609 1014.2316
0250 1418978515 1011.0231
0251 1418982421 1003.0973
0252 1418986328 1002.1392
0253 1418990234 1007.6458
0254 1418994140 1000.5628
0255 1418998046 1000.5691
0256 1419001953 1002.2188
0257 1419005859 1000.0782
0258 1419009765 1002.9609
0259 1419013671 1001.2766
0260 1419017578 999.8965
0261 1419021484 1000.5789
0262 1419025390 1000.3665
0263 1419029296 1000.1200
0264 1419033203 998.2991
0265 1419037109 997.7064
0266 1419041015 999.0762
0267 1419044921 1001.6536
0268 1419048828 1003.8956
0269 1419052734 1004.9929
0270 1419056640 1001.7911
0271 1419060546 1002.2295
0272 1419064453 999.5907
0273 1419068359 1001.4955
0274 1419072265 1004.0270
0275 1419076171 1000.4930
0276 1419080078 1008.4386
0277 1419083984 1004.1276
0278 1419087890 1003.0024
0279 1419091796 1003.7893
0280 1419095703 1011.9474
0281 1419099609 1006.4543
0282 1419103515 1009.2502
0283 1419107421 1015.4620
0284 1419111328 1012.4924
0285 1419115234 1018.0874
0286 1419119140 1017.3232
0287 1419123046 1012.5993
0288 1419126953 1015.1161
0289 1419130859 1017.7102
0290 1419134765 1023.2872
0291 1419138671 1023.7016
0292 1419142578 1024.4198
0293 1419146484 1025.2220
0294 1419150390 1027.9396
0295 1419154296 1028.8319
0296 1419158203 1028.7540
0297 1419162109 1032.9060
0298 1419166015 1031.1105
0299 1419169921 1033.1595
0300 1419173828 1032.4487
0301 1419177734 1035.0587
0302 1419181640 1040.2931
0303 1419185546 1041.7561
0304 1419189453 1042.5797
0305 1419193359 1040.6951
0306 1419197265 1045.8856
0307 1419201171 1043.5970
0308 1419205078 1043.3271
0309 1419208984 1047.5779
0310 1419212890 1050.1404
0311 1419216796 1048.8246
0312 1419220703 1052.3779
0313 1419224609 1052.6877
0314 1419228515 1053.5374
0315 1419232421 1054.7844
0316 1419236328 1054.0444
0317 1419240234 1055.3630
0318 1419244140 1057.9006
0319 1419248046 1057.1123
0320 1419251953 1058.3385
0321 1419255859 1061.4037
0322 1419259765 1060.7867
0323 1419263671 1060.9634
0324 1419267578 1063.0271
0325 1419271484 1063.8733
0326 1419275390 1066.3948
0327 1419279296 1062.2632
0328 1419283203 1059.8696
0329 1419287109 1062.5701
0330 1419291015 1067.0177
0331 1419294921 1066.0281
0332 1419298828 1062.8896
0333 1419302734 1066.3004
0334 1419306640 1067.9941
0335 1419310546 1068.6530
0336 1419314453 1068.8698
0337 1419318359 1073.1816
0338 1419322265 1072.6862
0339 1419326171 1072.1577
0340 1419330078 1075.7878
0341 1419333984 1067.6609
0342 1419337890 1068.8622
0343 1419341796 1072.7610
0344 1419345703 1073.5867
0345 1419349609 1075.1920
0346 1419353515 1073.6349
0347 1419357421 1073.3228
0348 1419361328 1072.8658
0349 1419365234 1076.8099
0350 1419369140 1072.9651
0351 1419373046 1072.8239
0352 1419376953 1078.2784
0353 1419380859 1078.1505
0354 1419384765 1076.4971
0355 1419388671 1073.1040
0356 1419392578 1074.9926
0357 1419396484 1078.3613
0358 1419400390 1072.3387
0359 1419404296 1079.8749
0360 1419408203 1078.9564
0361 1419412109 1077.0609
0362 1419416015 1072.9174
0363 1419419921 1076.4084
0364 1419423828 1075.1501
0365 1419427734 1077.4805
0366 1419431640 1075.0725
0367 1419435546 1079.4158
0368 1419439453 1077.3458
0369 1419443359 1075.1205
0370 1419447265 1073.9956
0371 1419451171 1078.6874
0372 1419455078 1075.7577
0373 1419458984 1079.2854
0374 1419462890 1079.7102
0375 1419466796 1080.5326
0376 1419470703 1081.3708
0377 1419474609 1086.4521
0378 1419478515 1078.0128
0379 1419482421 1082.4680
0380 1419486328 1080.7546
0381 1419490234 1076.8938
0382 1419494140 1079.7391
0383 1419498046 1080.1045
0384 1419501953 1080.9021
0385 1419505859 1080.5730
0386 1419509765 1077.8138
0387 1419513671 1079.4727
0388 1419517578 1080.2153
0389 1419521484 1079.7546
0390 1419525390 1083.2366
0391 1419529296 1075.4543
0392 1419533203 1077.6985
0393 1419537109 1078.2537
0394 1419541015 1081.2773
0395 1419544921 1081.2430
0396 1419548828 1078.8840
0397 1419552734 1078.4376
0398 1419556640 1084.2852
0399 1419560546 1078.5256
0400 1419564453 1080.7958
0401 1419568359 1080.8446
0402 1419572265 1081.7791
0403 1419576171 1080.1482
0404 1419580078 1078.7513
0405 1419583984 1082.4878
0406 1419587890 1082.9456
0407 1419591796 1081.7771
0408 1419595703 1083.8632
0409 1419599609 1085.8289
0410 1419603515 1079.8164
0411 1419607421 1082.8435
0412 1419611328 1082.1058
0413 1419615234 1082.1696
0414 1419619140 1082.8855
0415 1419623046 1080.8492
0416 1419626953 1083.1371
0417 1419630859 1079.0934
0418 1419634765 1074.6121
0419 1419638671 1079.6797
0420 1419642578 1079.0636
0421 1419646484 1078.0681
0422 1419650390 1080.8539
0423 1419654296 1076.3640
0424 1419658203 1077.0032
0425 1419662109 1075.4242
0426 1419666015 1073.1549
0427 1419669921 1077.7247
0428 1419673828 1076.5198
0429 1419677734 1075.1752
0430 1419681640 1073.4131
0431 1419685546 1075.0848
0432 1419689453 1070.2025
0433 1419693359 1066.2792
0434 1419697265 1070.6476
0435 1419701171 1074.1573
0436 1419705078 1068.8425
0437 1419708984 1068.2644
0438 1419712890 1066.7924
0439 1419716796 1067.7749
0440 1419720703 1065.0609
0441 1419724609 1066.3906
0442 1419728515 1066.9740
0443 1419732421 1065.4320
0444 1419736328 1060.8430
0445 1419740234 1063.8140
0446 1419744140 1061.3503
0447 1419748046 1058.7664
0448 1419751953 1058.6019
0449 1419755859 1058.8168
0450 1419759765 1058.6029
0451 1419763671 1058.2583
0452 1419767578 1053.2921
0453 1419771484 1057.2449
0454 1419775390 1055.0189
0455 1419779296 1051.3169
0456 1419783203 1050.3298
0457 1419787109 1050.3251
0458 1419791015 1048.3418
0459 1419794921 1047.5056
0460 1419798828 1048.7169
0461 1419802734 1050.7034
0462 1419806640 1048.6471
0463 1419810546 1047.2928
0464 1419814453 1044.3530
0465 1419818359 1044.1147
0466 1419822265 1041.5095
0467 1419826171 1046.9863
0468 1419830078 1040.4207
0469 1419833984 1037.2839
0470 1419837890 1033.9187
0471 1419841796 1034.3359
0472 1419845703 1037.4438
0473 1419849609 1037.6731
0474 1419853515 1036.4113
0475 1419857421 1034.1958
0476 1419861328 1031.1760
0477 1419865234 1033.8715
0478 1419869140 1030.9948
0479 1419873046 1031.4863
0480 1419876953 1029.5215
0481 1419880859 1029.9335
0482 1419884765 1025.1790
0483 1419888671 1028.3004
0484 1419892578 1024.4956
0485 1419896484 1024.2621
0486 1419900390 1025.5575
0487 1419904296 1027.2368
0488 1419908203 1022.3118
0489 1419912109 1024.2800
0490 1419916015 1026.1652
0491 1419919921 1024.4012
0492 1419923828 1022.8920
0493 1419927734 1020.8688
0494 1419931640 1022.3382
0495 1419935546 1025.2281
0496 1419939453 1020.7408
0497 1419943359 1018.8058
0498 1419947265 1020.9800
0499 1419951171 1022.1755
0500 1419955078 1023.9814
0501 1419958984 1021.4087
0502 1419962890 1019.2159
0503 1419966796 1018.9031
0504 1419970703 1021.5810
0505 1419974609 1016.9350
0506 1419978515 1017.5170
0507 1419982421 1022.3929
0508 1419986328 1019.0468
0509 1419990234 1015.1812
0510 1419994140 1016.6384
0511 1419998046 1018.0239
0512 1420001953 1020.3865
0513 1420005859 1022.6021
0514 1420009765 1017.4293
0515 1420013671 1019.1254
0516 1420017578 1019.7132
0517 1420021484 1017.9216
0518 1420025390 1017.5356
0519 1420029296 1021.3418
0520 1420033203 1018.9912
0521 1420037109 1022.4406
0522 1420041015 1016.6547
0523 1420044921 1021.9760
0524 1420048828 1018.5630
0525 1420052734 1017.7212
0526 1420056640 1024.0586
0527 1420060546 1016.3687
0528 1420064453 1021.1865
0529 1420068359 1021.2203
0530 1420072265 1018.5604
0531 1420076171 1024.7269
0532 1420080078 1023.4077
0533 1420083984 1018.4588
0534 1420087890 1021.8469
0535 1420091796 1023.2236
0536 1420095703 1021.3179
0537 1420099609 1019.3542
0538 1420103515 1020.7853
0539 1420107421 1021.5457
0540 1420111328 1019.3948
0541 1420115234 1018.8317
0542 1420119140 1019.6786
0543 1420123046 1023.8348
0544 1420126953 1024.8866
0545 1420130859 1022.1741
0546 1420134765 1017.3861
0547 1420138671 1017.0494
0548 1420142578 1022.3299
0549 1420146484 1020.9463
0550 1420150390 1020.6236
0551 1420154296 1019.0436
0552 1420158203 1018.7794
0553 1420162109 1020.5043
0554 1420166015 1021.2290
0555 1420169921 1019.9183
0556 1420173828 1025.0205
0557 1420177734 1021.5834
0558 1420181640 1019.5870
0559 1420185546 1023.7362
0560 1420189453 1024.6525
0561 1420193359 1025.2511
0562 1420197265 1017.8613
0563 1420201171 1018.2264
0564 1420205078 1020.2408
0565 1420208984 1020.3210
0566 1420212890 1016.4118
0567 1420216796 1015.9434
0568 1420220703 1013.1315
0569 1420224609 1018.2185
0570 1420228515 1021.6215
0571 1420232421 1014.4546
0572 1420236328 1015.9550
0573 1420240234 1016.8922
0574 1420244140 1014.6330
0575 1420248046 1014.4751
0576 1420251953 1010.2916
0577 1420255859 1012.3923
0578 1420259765 1011.8405
0579 1420263671 1010.5553
0580 1420267578 1010.7659
0581 1420271484 1007.2028
0582 1420275390 1011.8942
0583 1420279296 1011.8338
0584 1420283203 1010.0779
0585 1420287109 1008.5290
0586 1420291015 1005.2594
0587 1420294921 1006.6671
0588 1420298828 1008.4790
0589 1420302734 1005.3108
0590 1420306640 1004.5208
0591 1420310546 1004.9583
0592 1420314453 1002.9106
0593 1420318359 1003.6190
0594 1420322265 1003.3547
0595 1420326171 1001.7326
0596 1420330078 1000.1080
0597 1420333984 999.7632
0598 1420337890 1003.9289
0599 1420341796 1004.6829
0600 1420345703 1005.9901
0601 1420349609 1004.4833
0602 1420353515 1003.4193
0603 1420357421 1000.2846
0604 1420361328 999.2177
0605 1420365234 997.2478
0606 1420369140 996.0668
0607 1420373046 994.8007
0608 1420376953 995.7913
0609 1420380859 996.1760
0610 1420384765 997.1339
0611 1420388671 994.7750
0612 1420392578 991.8311
0613 1420396484 989.8637
0614 1420400390 989.0030
0615 1420404296 989.3742
0616 1420408203 987.6947
0617 1420412109 991.1804
0618 1420416015 990.1392
0619 1420419921 992.2369
0620 1420423828 986.7678
0621 1420427734 987.1527
0622 1420431640 988.0755
0623 1420435546 986.2500
0624 1420439453 989.5656
0625 1420443359 989.5748
0626 1420447265 986.0814
0627 1420451171 988.6301
0628 1420455078 984.2798
0629 1420458984 985.4410
0630 1420462890 985.3182
0631 1420466796 985.0111
0632 1420470703 984.1393
0633 1420474609 987.8776
0634 1420478515 983.0913
0635 1420482421 983.2070
0636 1420486328 984.5250
0637 1420490234 985.6664
0638 1420494140 986.4299
0639 1420498046 981.5627
0640 1420501953 987.1381
0641 1420505859 983.3735
0642 1420509765 986.0941
0643 1420513671 982.2394
0644 1420517578 988.4219
0645 1420521484 986.2386
0646 1420525390 985.6807
0647 1420529296 985.6768
0648 1420533203 984.4141
0649 1420537109 983.2241
0650 1420541015 985.6194
0651 1420544921 984.2921
0652 1420548828 986.0866
0653 1420552734 985.6411
0654 1420556640 983.8275
0655 1420560546 985.0742
0656 1420564453 985.7853
0657 1420568359 986.9527
0658 1420572265 986.5201
0659 1420576171 985.7188
0660 1420580078 986.7503
0661 1420583984 984.0234
0662 1420587890 984.5363
0663 1420591796 986.6279
0664 1420595703 988.2708
0665 1420599609 986.8764
0666 1420603515 986.0082
0667 1420607421 983.6393
0668 1420611328 984.1467
0669 1420615234 991.3337
0670 1420619140 989.6116
0671 1420623046 985.1483
0672 1420626953 987.7564
0673 1420630859 984.7333
0674 1420634765 986.5742
0675 1420638671 985.2196
0676 1420642578 983.4776
0677 1420646484 986.1177
0678 1420650390 984.0848
0679 1420654296 981.9445
0680 1420658203 984.0148
0681 1420662109 984.8674
0682 1420666015 984.8907
0683 1420669921 985.5479
0684 1420673828 984.4429
0685 1420677734 982.8833
0686 1420681640 983.9599
0687 1420685546 985.9963
0688 1420689453 980.9358
0689 1420693359 976.0872
0690 1420697265 981.3563
0691 1420701171 982.9844
0692 1420705078 984.2616
0693 1420708984 981.4891
0694 1420712890 976.5638
0695 1420716796 980.9258
0696 1420720703 979.1628
0697 1420724609 976.6261
0698 1420728515 977.9713
0699 1420732421 981.8885
0700 1420736328 979.9693
0701 1420740234 978.0513
0702 1420744140 976.1235
0703 1420748046 973.7898
0704 1420751953 974.0087
0705 1420755859 973.3688
0706 1420759765 977.6116
0707 1420763671 972.6506
0708 1420767578 973.8191
0709 1420771484 972.6109
0710 1420775390 975.0896
0711 1420779296 971.3710
0712 1420783203 969.4318
0713 1420787109 970.0853
0714 1420791015 977.1026
0715 1420794921 969.3694
0716 1420798828 966.4769
0717 1420802734 966.7277
0718 1420806640 967.9134
0719 1420810546 971.6552
0720 1420814453 969.7556
0721 1420818359 968.3000
0722 1420822265 964.7855
0723 1420826171 970.6575
0724 1420830078 964.3356
0725 1420833984 964.2263
0726 1420837890 964.8902
0727 1420841796 965.7892
0728 1420845703 962.6497
0729 1420849609 966.8306
0730 1420853515 965.1306
0731 1420857421 965.8216
0732 1420861328 968.3459
