# File: 20-11-28T182121.hot
# NOTEA     = RSP1A+GPIOLabs Pi #1 On Horn
# NOTEB     = Sdrplay 8 MHz Test
# OBSERVER  = Science Aficionado
# DEVICE    = SDRPlay RSP1A
# DATADIR   = ../data/
# SITE      = RSP1A+GPIOLabs Pi #1 On Horn
# CITY      = Green Bank
# REGION    = West Virginia
# COUNTRY   = US
# TELTYPE   = Bubble Wrap  Horn
# FRAME     = TOPO
# GAIN1     = 0.0
# GAIN2     = 12.0
# GAIN3     = 12.0
# GAIN4     = 0.0
# Count     = 360000
# CenterFreq= 1422000000.0
# Bandwidth = 8000000.0
# Duration  = 156.957872
# DeltaX    = 5859.375
# TSYS      = 200.0
# TRX       = 100.0
# TRMS      = 2.0
# TINT      = 1.0
# KPERC     = 100.0
# GAINFACT  = 1.0
# BUNIT     = Counts
# NCHAN     = 2048
# NSPEC     = 1
# NTIME     = 0
# NSAMPLES  = 0
# EPEAK     = 4.10875183718
# ERMS      = 0.995973393526
# EMJD      = 58568.808999981004 
# REFCHAN   = 1024.0
# REFSAMPL  = 256.0
# NAVE      = 600
# NMEDIAN   = 1024
# Fft_rate  = 5000
# UTC       = 2020-11-28 18:21:21.145509
# SECONDS   =       0.0000000000 
# LST       = 17:34:25.050
# AZ        = 180.0
# EL        = -40.0
# TELLON    = -79:50:22.920
# TELLAT    = +38:25:59.160
# RA        = 06:05:23.010
# DEC       = -88:26:43.400
# GALLON    = 301:12:56.20
# GALLAT    = -27:25:41.20
# ALT_SUN   = +27:40:10.1
# AZ_SUN    = +199:25:05.6
# ETAA      = 0.8
# ETAB      = 0.99
# POLANGLE  = 0.0
# TELSIZEAM = 1.0
# TELSIZEBM = 1.0
# AST_VERS  = 05.01
0000 1418001953 0.8396
0001 1418005859 0.8433
0002 1418009765 0.8448
0003 1418013671 0.8484
0004 1418017578 0.8483
0005 1418021484 0.8489
0006 1418025390 0.8500
0007 1418029296 0.8547
0008 1418033203 0.8540
0009 1418037109 0.8580
0010 1418041015 0.8595
0011 1418044921 0.8657
0012 1418048828 0.8682
0013 1418052734 0.8673
0014 1418056640 0.8672
0015 1418060546 0.8676
0016 1418064453 0.8676
0017 1418068359 0.8695
0018 1418072265 0.8717
0019 1418076171 0.8664
0020 1418080078 0.8700
0021 1418083984 0.8676
0022 1418087890 0.8606
0023 1418091796 0.8533
0024 1418095703 0.8411
0025 1418099609 0.8364
0026 1418103515 0.8297
0027 1418107421 0.8138
0028 1418111328 0.8004
0029 1418115234 0.7841
0030 1418119140 0.7686
0031 1418123046 0.7460
0032 1418126953 0.7239
0033 1418130859 0.7015
0034 1418134765 0.6749
0035 1418138671 0.6452
0036 1418142578 0.6132
0037 1418146484 0.5785
0038 1418150390 0.5440
0039 1418154296 0.5069
0040 1418158203 0.4671
0041 1418162109 0.4223
0042 1418166015 0.3828
0043 1418169921 0.3375
0044 1418173828 0.2962
0045 1418177734 0.2531
0046 1418181640 0.2103
0047 1418185546 0.1713
0048 1418189453 0.1336
0049 1418193359 0.1002
0050 1418197265 0.0724
0051 1418201171 0.0507
0052 1418205078 0.0368
0053 1418208984 0.0329
0054 1418212890 0.0404
0055 1418216796 0.0617
0056 1418220703 0.0987
0057 1418224609 0.1542
0058 1418228515 0.2305
0059 1418232421 0.3312
0060 1418236328 0.4600
0061 1418240234 0.6215
0062 1418244140 0.8104
0063 1418248046 1.0398
0064 1418251953 1.3156
0065 1418255859 1.6336
0066 1418259765 2.0002
0067 1418263671 2.4349
0068 1418267578 2.9203
0069 1418271484 3.4840
0070 1418275390 4.1195
0071 1418279296 4.8300
0072 1418283203 5.6336
0073 1418287109 6.5370
0074 1418291015 7.5418
0075 1418294921 8.6230
0076 1418298828 9.8347
0077 1418302734 11.2164
0078 1418306640 12.6769
0079 1418310546 14.3449
0080 1418314453 16.1021
0081 1418318359 18.0481
0082 1418322265 20.0875
0083 1418326171 22.4026
0084 1418330078 24.8747
0085 1418333984 27.5049
0086 1418337890 30.3249
0087 1418341796 33.3665
0088 1418345703 36.6281
0089 1418349609 40.1266
0090 1418353515 43.9139
0091 1418357421 47.7835
0092 1418361328 52.2522
0093 1418365234 56.7234
0094 1418369140 61.5976
0095 1418373046 66.4787
0096 1418376953 72.2300
0097 1418380859 77.7363
0098 1418384765 84.0842
0099 1418388671 90.0878
0100 1418392578 96.6349
0101 1418396484 103.7914
0102 1418400390 111.4986
0103 1418404296 118.7021
0104 1418408203 126.9279
0105 1418412109 134.6046
0106 1418416015 143.3840
0107 1418419921 152.6536
0108 1418423828 161.8913
0109 1418427734 171.6385
0110 1418431640 181.7285
0111 1418435546 192.4831
0112 1418439453 203.4047
0113 1418443359 213.8859
0114 1418447265 225.2577
0115 1418451171 236.3682
0116 1418455078 249.3614
0117 1418458984 261.3675
0118 1418462890 274.4937
0119 1418466796 287.9964
0120 1418470703 301.3573
0121 1418474609 315.2758
0122 1418478515 329.3840
0123 1418482421 343.3952
0124 1418486328 357.5235
0125 1418490234 374.1463
0126 1418494140 386.2328
0127 1418498046 403.4418
0128 1418501953 417.6304
0129 1418505859 434.3000
0130 1418509765 451.1568
0131 1418513671 465.6365
0132 1418517578 480.5302
0133 1418521484 499.3185
0134 1418525390 513.9037
0135 1418529296 530.3249
0136 1418533203 547.6766
0137 1418537109 564.1840
0138 1418541015 579.6437
0139 1418544921 595.6703
0140 1418548828 613.9440
0141 1418552734 630.5478
0142 1418556640 647.1683
0143 1418560546 665.6760
0144 1418564453 680.1589
0145 1418568359 695.9335
0146 1418572265 711.0314
0147 1418576171 729.5309
0148 1418580078 747.6779
0149 1418583984 764.6547
0150 1418587890 778.1398
0151 1418591796 790.2730
0152 1418595703 807.0111
0153 1418599609 823.8199
0154 1418603515 836.8574
0155 1418607421 849.5859
0156 1418611328 868.0641
0157 1418615234 881.2314
0158 1418619140 894.3676
0159 1418623046 904.0357
0160 1418626953 917.9081
0161 1418630859 934.4956
0162 1418634765 943.1671
0163 1418638671 961.1017
0164 1418642578 969.7168
0165 1418646484 977.8557
0166 1418650390 986.8717
0167 1418654296 998.8758
0168 1418658203 1011.8477
0169 1418662109 1021.1261
0170 1418666015 1030.0339
0171 1418669921 1040.3654
0172 1418673828 1044.0901
0173 1418677734 1052.9772
0174 1418681640 1062.0667
0175 1418685546 1065.4374
0176 1418689453 1073.3923
0177 1418693359 1082.6743
0178 1418697265 1089.3240
0179 1418701171 1094.0184
0180 1418705078 1097.0349
0181 1418708984 1105.6410
0182 1418712890 1112.0480
0183 1418716796 1109.7627
0184 1418720703 1115.4617
0185 1418724609 1113.3748
0186 1418728515 1124.9667
0187 1418732421 1119.3671
0188 1418736328 1124.2031
0189 1418740234 1131.4836
0190 1418744140 1131.1344
0191 1418748046 1133.9849
0192 1418751953 1133.7802
0193 1418755859 1128.7856
0194 1418759765 1132.8702
0195 1418763671 1134.3230
0196 1418767578 1134.4580
0197 1418771484 1132.3019
0198 1418775390 1135.1526
0199 1418779296 1132.5236
0200 1418783203 1131.6798
0201 1418787109 1130.8578
0202 1418791015 1126.0768
0203 1418794921 1126.4739
0204 1418798828 1127.7985
0205 1418802734 1118.7052
0206 1418806640 1118.3993
0207 1418810546 1115.9503
0208 1418814453 1113.8367
0209 1418818359 1112.7573
0210 1418822265 1108.7970
0211 1418826171 1110.8539
0212 1418830078 1104.9871
0213 1418833984 1095.6584
0214 1418837890 1098.2347
0215 1418841796 1091.5118
0216 1418845703 1088.9147
0217 1418849609 1092.5289
0218 1418853515 1087.5466
0219 1418857421 1083.6387
0220 1418861328 1083.4910
0221 1418865234 1076.5776
0222 1418869140 1076.4905
0223 1418873046 1073.7229
0224 1418876953 1071.0686
0225 1418880859 1068.9984
0226 1418884765 1060.8005
0227 1418888671 1061.6715
0228 1418892578 1052.6165
0229 1418896484 1051.2368
0230 1418900390 1045.4812
0231 1418904296 1046.5966
0232 1418908203 1042.2131
0233 1418912109 1040.8629
0234 1418916015 1036.0579
0235 1418919921 1035.1932
0236 1418923828 1032.8743
0237 1418927734 1028.6228
0238 1418931640 1023.1503
0239 1418935546 1023.2960
0240 1418939453 1025.1176
0241 1418943359 1021.1851
0242 1418947265 1017.5334
0243 1418951171 1016.1522
0244 1418955078 1013.7108
0245 1418958984 1008.4107
0246 1418962890 1011.0993
0247 1418966796 1005.5734
0248 1418970703 1008.5610
0249 1418974609 1006.6216
0250 1418978515 1000.0107
0251 1418982421 1002.9005
0252 1418986328 1005.0867
0253 1418990234 1006.2800
0254 1418994140 1000.4177
0255 1418998046 999.8472
0256 1419001953 996.5845
0257 1419005859 1001.3331
0258 1419009765 995.2438
0259 1419013671 998.0637
0260 1419017578 995.6391
0261 1419021484 995.4188
0262 1419025390 996.5015
0263 1419029296 995.1028
0264 1419033203 1000.4874
0265 1419037109 996.4907
0266 1419041015 999.6135
0267 1419044921 996.2081
0268 1419048828 1001.4347
0269 1419052734 999.5024
0270 1419056640 998.3363
0271 1419060546 996.0460
0272 1419064453 997.3193
0273 1419068359 999.2269
0274 1419072265 1000.7261
0275 1419076171 1000.7515
0276 1419080078 998.6486
0277 1419083984 997.4058
0278 1419087890 1003.4078
0279 1419091796 1006.6475
0280 1419095703 1003.8780
0281 1419099609 1005.9744
0282 1419103515 1010.0046
0283 1419107421 1011.0972
0284 1419111328 1010.5922
0285 1419115234 1013.6403
0286 1419119140 1012.3466
0287 1419123046 1014.1618
0288 1419126953 1014.9709
0289 1419130859 1013.5590
0290 1419134765 1019.5847
0291 1419138671 1019.1428
0292 1419142578 1021.1808
0293 1419146484 1021.3108
0294 1419150390 1023.3783
0295 1419154296 1024.1049
0296 1419158203 1026.9636
0297 1419162109 1026.8749
0298 1419166015 1029.3679
0299 1419169921 1029.0514
0300 1419173828 1031.2722
0301 1419177734 1032.1691
0302 1419181640 1036.9198
0303 1419185546 1039.0275
0304 1419189453 1039.1346
0305 1419193359 1038.5660
0306 1419197265 1042.6293
0307 1419201171 1039.5837
0308 1419205078 1041.5912
0309 1419208984 1045.2449
0310 1419212890 1046.8771
0311 1419216796 1042.5031
0312 1419220703 1046.3154
0313 1419224609 1050.4052
0314 1419228515 1046.2592
0315 1419232421 1049.8046
0316 1419236328 1053.1780
0317 1419240234 1050.2421
0318 1419244140 1057.4862
0319 1419248046 1055.9077
0320 1419251953 1059.5494
0321 1419255859 1059.5958
0322 1419259765 1058.4604
0323 1419263671 1062.0402
0324 1419267578 1059.9136
0325 1419271484 1060.8666
0326 1419275390 1061.4856
0327 1419279296 1061.7413
0328 1419283203 1058.9076
0329 1419287109 1064.4447
0330 1419291015 1064.9520
0331 1419294921 1066.5625
0332 1419298828 1068.5933
0333 1419302734 1067.7683
0334 1419306640 1066.7832
0335 1419310546 1066.1256
0336 1419314453 1066.4373
0337 1419318359 1072.5790
0338 1419322265 1067.4641
0339 1419326171 1068.2622
0340 1419330078 1069.2117
0341 1419333984 1067.7279
0342 1419337890 1074.3048
0343 1419341796 1073.0270
0344 1419345703 1072.7853
0345 1419349609 1069.2811
0346 1419353515 1067.6359
0347 1419357421 1071.7343
0348 1419361328 1070.7076
0349 1419365234 1073.1724
0350 1419369140 1072.1433
0351 1419373046 1072.3943
0352 1419376953 1071.3351
0353 1419380859 1071.4720
0354 1419384765 1072.5955
0355 1419388671 1068.3954
0356 1419392578 1068.6871
0357 1419396484 1077.5475
0358 1419400390 1072.8197
0359 1419404296 1074.1779
0360 1419408203 1076.8334
0361 1419412109 1073.2914
0362 1419416015 1076.5133
0363 1419419921 1075.7421
0364 1419423828 1072.9061
0365 1419427734 1079.0684
0366 1419431640 1077.4480
0367 1419435546 1073.7489
0368 1419439453 1079.3510
0369 1419443359 1074.6581
0370 1419447265 1075.7959
0371 1419451171 1081.6117
0372 1419455078 1077.1677
0373 1419458984 1076.9865
0374 1419462890 1076.4944
0375 1419466796 1074.7510
0376 1419470703 1074.7292
0377 1419474609 1079.8900
0378 1419478515 1076.2350
0379 1419482421 1075.1241
0380 1419486328 1077.9449
0381 1419490234 1073.9110
0382 1419494140 1075.9609
0383 1419498046 1079.8754
0384 1419501953 1075.2551
0385 1419505859 1076.9891
0386 1419509765 1078.1864
0387 1419513671 1076.1681
0388 1419517578 1074.5538
0389 1419521484 1077.8955
0390 1419525390 1078.0924
0391 1419529296 1075.3448
0392 1419533203 1077.4037
0393 1419537109 1080.8081
0394 1419541015 1079.1429
0395 1419544921 1085.0060
0396 1419548828 1077.5345
0397 1419552734 1076.5341
0398 1419556640 1078.5232
0399 1419560546 1079.5649
0400 1419564453 1076.4240
0401 1419568359 1079.0140
0402 1419572265 1079.7396
0403 1419576171 1080.1323
0404 1419580078 1080.5940
0405 1419583984 1081.7021
0406 1419587890 1080.3462
0407 1419591796 1082.8119
0408 1419595703 1079.9214
0409 1419599609 1079.7810
0410 1419603515 1082.6981
0411 1419607421 1080.5786
0412 1419611328 1076.2153
0413 1419615234 1076.2832
0414 1419619140 1079.3060
0415 1419623046 1080.4252
0416 1419626953 1078.7238
0417 1419630859 1075.2811
0418 1419634765 1074.9186
0419 1419638671 1072.9835
0420 1419642578 1079.0000
0421 1419646484 1078.3369
0422 1419650390 1077.2020
0423 1419654296 1072.6241
0424 1419658203 1069.9003
0425 1419662109 1069.7557
0426 1419666015 1074.2454
0427 1419669921 1066.4550
0428 1419673828 1071.1315
0429 1419677734 1068.6750
0430 1419681640 1074.6959
0431 1419685546 1073.2622
0432 1419689453 1068.7554
0433 1419693359 1071.2253
0434 1419697265 1068.5498
0435 1419701171 1072.4869
0436 1419705078 1065.7585
0437 1419708984 1064.3473
0438 1419712890 1064.6934
0439 1419716796 1066.4601
0440 1419720703 1063.6289
0441 1419724609 1062.1151
0442 1419728515 1061.3439
0443 1419732421 1062.1923
0444 1419736328 1061.6929
0445 1419740234 1059.6812
0446 1419744140 1061.1102
0447 1419748046 1061.8573
0448 1419751953 1057.2446
0449 1419755859 1053.0302
0450 1419759765 1055.1096
0451 1419763671 1052.9585
0452 1419767578 1055.1630
0453 1419771484 1046.3538
0454 1419775390 1049.6245
0455 1419779296 1046.1208
0456 1419783203 1048.4523
0457 1419787109 1047.2882
0458 1419791015 1045.3738
0459 1419794921 1045.8962
0460 1419798828 1044.0063
0461 1419802734 1043.6519
0462 1419806640 1042.2969
0463 1419810546 1044.3357
0464 1419814453 1038.3605
0465 1419818359 1040.3717
0466 1419822265 1040.3768
0467 1419826171 1041.6348
0468 1419830078 1040.2838
0469 1419833984 1038.8262
0470 1419837890 1031.7462
0471 1419841796 1038.9846
0472 1419845703 1037.0331
0473 1419849609 1036.1138
0474 1419853515 1036.4028
0475 1419857421 1036.2046
0476 1419861328 1029.5886
0477 1419865234 1027.4413
0478 1419869140 1027.1785
0479 1419873046 1023.3554
0480 1419876953 1027.1731
0481 1419880859 1029.1244
0482 1419884765 1026.1731
0483 1419888671 1026.8657
0484 1419892578 1030.4198
0485 1419896484 1025.4409
0486 1419900390 1023.0297
0487 1419904296 1021.0507
0488 1419908203 1024.6182
0489 1419912109 1022.3306
0490 1419916015 1022.7087
0491 1419919921 1019.8788
0492 1419923828 1017.7055
0493 1419927734 1018.9580
0494 1419931640 1017.9830
0495 1419935546 1018.3833
0496 1419939453 1019.8109
0497 1419943359 1017.1863
0498 1419947265 1017.5876
0499 1419951171 1020.4942
0500 1419955078 1020.4633
0501 1419958984 1015.6082
0502 1419962890 1020.3477
0503 1419966796 1020.5483
0504 1419970703 1017.1634
0505 1419974609 1018.4479
0506 1419978515 1018.4768
0507 1419982421 1018.2375
0508 1419986328 1017.1920
0509 1419990234 1014.9191
0510 1419994140 1013.1611
0511 1419998046 1018.2621
0512 1420001953 1017.1937
0513 1420005859 1019.4284
0514 1420009765 1018.5223
0515 1420013671 1019.1540
0516 1420017578 1019.7258
0517 1420021484 1016.1166
0518 1420025390 1016.8134
0519 1420029296 1021.7931
0520 1420033203 1017.1589
0521 1420037109 1015.2362
0522 1420041015 1018.6981
0523 1420044921 1017.0300
0524 1420048828 1015.6432
0525 1420052734 1016.2803
0526 1420056640 1015.9595
0527 1420060546 1018.8172
0528 1420064453 1021.2109
0529 1420068359 1022.1019
0530 1420072265 1018.5108
0531 1420076171 1019.4711
0532 1420080078 1017.8970
0533 1420083984 1019.3475
0534 1420087890 1017.4080
0535 1420091796 1020.0939
0536 1420095703 1021.5175
0537 1420099609 1019.3652
0538 1420103515 1020.7417
0539 1420107421 1023.4426
0540 1420111328 1019.6003
0541 1420115234 1020.2734
0542 1420119140 1020.6672
0543 1420123046 1019.4178
0544 1420126953 1018.9185
0545 1420130859 1024.8568
0546 1420134765 1018.1012
0547 1420138671 1020.3893
0548 1420142578 1017.9685
0549 1420146484 1016.6526
0550 1420150390 1017.4666
0551 1420154296 1017.9950
0552 1420158203 1018.8979
0553 1420162109 1016.9962
0554 1420166015 1019.3783
0555 1420169921 1022.2242
0556 1420173828 1019.0139
0557 1420177734 1018.1217
0558 1420181640 1018.8124
0559 1420185546 1017.6284
0560 1420189453 1018.8312
0561 1420193359 1017.2678
0562 1420197265 1015.6495
0563 1420201171 1016.5594
0564 1420205078 1016.6242
0565 1420208984 1016.2300
0566 1420212890 1016.5548
0567 1420216796 1011.0272
0568 1420220703 1012.4193
0569 1420224609 1012.7791
0570 1420228515 1014.7850
0571 1420232421 1011.1125
0572 1420236328 1013.8833
0573 1420240234 1011.2092
0574 1420244140 1012.1042
0575 1420248046 1013.5377
0576 1420251953 1009.9523
0577 1420255859 1014.0894
0578 1420259765 1011.9834
0579 1420263671 1007.5096
0580 1420267578 1011.3697
0581 1420271484 1010.1338
0582 1420275390 1006.8833
0583 1420279296 1011.7621
0584 1420283203 1008.4142
0585 1420287109 1006.7765
0586 1420291015 1007.5101
0587 1420294921 1002.7761
0588 1420298828 1004.5224
0589 1420302734 1003.0897
0590 1420306640 1001.2059
0591 1420310546 1002.5844
0592 1420314453 1001.6592
0593 1420318359 1005.9200
0594 1420322265 1001.7712
0595 1420326171 1000.6429
0596 1420330078 998.1053
0597 1420333984 994.7492
0598 1420337890 1001.7286
0599 1420341796 1000.6132
0600 1420345703 996.7009
0601 1420349609 999.2147
0602 1420353515 999.6367
0603 1420357421 1002.0770
0604 1420361328 997.4062
0605 1420365234 998.0292
0606 1420369140 998.9053
0607 1420373046 992.0848
0608 1420376953 994.4901
0609 1420380859 995.2955
0610 1420384765 994.2146
0611 1420388671 993.3503
0612 1420392578 992.6634
0613 1420396484 991.0156
0614 1420400390 989.1885
0615 1420404296 990.1494
0616 1420408203 991.7278
0617 1420412109 989.3452
0618 1420416015 988.9835
0619 1420419921 985.7576
0620 1420423828 985.1118
0621 1420427734 985.8406
0622 1420431640 987.1378
0623 1420435546 985.2527
0624 1420439453 983.7346
0625 1420443359 985.3875
0626 1420447265 982.4609
0627 1420451171 983.6361
0628 1420455078 984.4757
0629 1420458984 985.5082
0630 1420462890 986.8271
0631 1420466796 985.0720
0632 1420470703 986.6600
0633 1420474609 984.9659
0634 1420478515 987.2648
0635 1420482421 982.9442
0636 1420486328 982.1567
0637 1420490234 981.0552
0638 1420494140 982.0699
0639 1420498046 981.2550
0640 1420501953 981.2740
0641 1420505859 982.5673
0642 1420509765 982.2251
0643 1420513671 985.0281
0644 1420517578 983.5618
0645 1420521484 981.2864
0646 1420525390 981.1457
0647 1420529296 979.3952
0648 1420533203 983.4454
0649 1420537109 981.4581
0650 1420541015 981.9780
0651 1420544921 983.1515
0652 1420548828 984.3185
0653 1420552734 983.8021
0654 1420556640 986.1899
0655 1420560546 982.4047
0656 1420564453 984.6409
0657 1420568359 983.1722
0658 1420572265 982.1452
0659 1420576171 981.1849
0660 1420580078 983.5438
0661 1420583984 986.2330
0662 1420587890 985.8412
0663 1420591796 985.1829
0664 1420595703 982.0078
0665 1420599609 984.2905
0666 1420603515 987.3486
0667 1420607421 983.8883
0668 1420611328 986.5466
0669 1420615234 984.4897
0670 1420619140 983.8987
0671 1420623046 984.2347
0672 1420626953 988.4986
0673 1420630859 986.9622
0674 1420634765 983.6469
0675 1420638671 983.7752
0676 1420642578 984.4351
0677 1420646484 982.3403
0678 1420650390 979.7283
0679 1420654296 980.9949
0680 1420658203 985.7411
0681 1420662109 983.0149
0682 1420666015 984.9468
0683 1420669921 981.0204
0684 1420673828 984.6403
0685 1420677734 981.6003
0686 1420681640 982.0081
0687 1420685546 977.0718
0688 1420689453 979.5152
0689 1420693359 977.9088
0690 1420697265 978.3130
0691 1420701171 983.8667
0692 1420705078 984.6078
0693 1420708984 979.6122
0694 1420712890 976.0916
0695 1420716796 977.0985
0696 1420720703 978.9570
0697 1420724609 982.5457
0698 1420728515 976.1975
0699 1420732421 976.9010
0700 1420736328 977.6570
0701 1420740234 974.5507
0702 1420744140 973.2401
0703 1420748046 974.3140
0704 1420751953 977.3884
0705 1420755859 971.2401
0706 1420759765 971.1455
0707 1420763671 971.5681
0708 1420767578 975.7434
0709 1420771484 972.2570
0710 1420775390 971.3008
0711 1420779296 971.5182
0712 1420783203 971.1898
0713 1420787109 971.9665
0714 1420791015 966.8023
0715 1420794921 966.3446
0716 1420798828 969.2114
0717 1420802734 966.4181
0718 1420806640 966.0668
0719 1420810546 966.4841
0720 1420814453 962.9810
0721 1420818359 967.4249
0722 1420822265 968.3956
0723 1420826171 966.8305
0724 1420830078 963.5184
0725 1420833984 966.5390
0726 1420837890 967.0620
0727 1420841796 965.4633
0728 1420845703 965.9546
0729 1420849609 961.0219
0730 1420853515 964.0276
0731 1420857421 963.4279
0732 1420861328 960.6486
0733 1420865234 964.8450
