# File: 20-11-28T181843.hot
# NOTEA     = RSP1A+GPIOLabs Pi #1 On Horn
# NOTEB     = Sdrplay 8 MHz Test
# OBSERVER  = Science Aficionado
# DEVICE    = SDRPlay RSP1A
# DATADIR   = ../data/
# SITE      = RSP1A+GPIOLabs Pi #1 On Horn
# CITY      = Green Bank
# REGION    = West Virginia
# COUNTRY   = US
# TELTYPE   = Bubble Wrap  Horn
# FRAME     = TOPO
# GAIN1     = 0.0
# GAIN2     = 12.0
# GAIN3     = 12.0
# GAIN4     = 0.0
# Count     = 360000
# CenterFreq= 1422000000.0
# Bandwidth = 8000000.0
# Duration  = 157.613979
# DeltaX    = 5859.375
# TSYS      = 200.0
# TRX       = 100.0
# TRMS      = 2.0
# TINT      = 1.0
# KPERC     = 100.0
# GAINFACT  = 1.0
# BUNIT     = Counts
# NCHAN     = 2048
# NSPEC     = 1
# NTIME     = 0
# NSAMPLES  = 0
# EPEAK     = 4.10875183718
# ERMS      = 0.995973393526
# EMJD      = 58568.808999981004 
# REFCHAN   = 1024.0
# REFSAMPL  = 256.0
# NAVE      = 600
# NMEDIAN   = 1024
# Fft_rate  = 5000
# UTC       = 2020-11-28 18:18:43.859583
# SECONDS   =       0.0000000000 
# LST       = 17:31:47.330
# AZ        = 180.0
# EL        = -40.0
# TELLON    = -79:50:22.920
# TELLAT    = +38:25:59.160
# RA        = 06:02:45.580
# DEC       = -88:26:52.700
# GALLON    = 301:13:20.40
# GALLAT    = -27:26:42.20
# ALT_SUN   = +27:50:14.6
# AZ_SUN    = +198:45:22.1
# ETAA      = 0.8
# ETAB      = 0.99
# POLANGLE  = 0.0
# TELSIZEAM = 1.0
# TELSIZEBM = 1.0
# AST_VERS  = 05.01
0000 1418001953 0.8414
0001 1418005859 0.8430
0002 1418009765 0.8445
0003 1418013671 0.8461
0004 1418017578 0.8450
0005 1418021484 0.8491
0006 1418025390 0.8513
0007 1418029296 0.8548
0008 1418033203 0.8575
0009 1418037109 0.8600
0010 1418041015 0.8601
0011 1418044921 0.8666
0012 1418048828 0.8687
0013 1418052734 0.8699
0014 1418056640 0.8699
0015 1418060546 0.8736
0016 1418064453 0.8721
0017 1418068359 0.8750
0018 1418072265 0.8715
0019 1418076171 0.8693
0020 1418080078 0.8665
0021 1418083984 0.8631
0022 1418087890 0.8607
0023 1418091796 0.8527
0024 1418095703 0.8498
0025 1418099609 0.8408
0026 1418103515 0.8292
0027 1418107421 0.8144
0028 1418111328 0.8049
0029 1418115234 0.7865
0030 1418119140 0.7670
0031 1418123046 0.7482
0032 1418126953 0.7281
0033 1418130859 0.7009
0034 1418134765 0.6762
0035 1418138671 0.6466
0036 1418142578 0.6163
0037 1418146484 0.5794
0038 1418150390 0.5454
0039 1418154296 0.5050
0040 1418158203 0.4638
0041 1418162109 0.4248
0042 1418166015 0.3808
0043 1418169921 0.3391
0044 1418173828 0.2953
0045 1418177734 0.2519
0046 1418181640 0.2096
0047 1418185546 0.1709
0048 1418189453 0.1329
0049 1418193359 0.0999
0050 1418197265 0.0723
0051 1418201171 0.0507
0052 1418205078 0.0369
0053 1418208984 0.0329
0054 1418212890 0.0403
0055 1418216796 0.0615
0056 1418220703 0.0989
0057 1418224609 0.1542
0058 1418228515 0.2302
0059 1418232421 0.3321
0060 1418236328 0.4609
0061 1418240234 0.6164
0062 1418244140 0.8076
0063 1418248046 1.0430
0064 1418251953 1.3163
0065 1418255859 1.6349
0066 1418259765 2.0095
0067 1418263671 2.4366
0068 1418267578 2.9202
0069 1418271484 3.4859
0070 1418275390 4.1336
0071 1418279296 4.8402
0072 1418283203 5.6529
0073 1418287109 6.5682
0074 1418291015 7.5410
0075 1418294921 8.6730
0076 1418298828 9.8752
0077 1418302734 11.1675
0078 1418306640 12.7264
0079 1418310546 14.3261
0080 1418314453 16.0699
0081 1418318359 17.9782
0082 1418322265 20.0712
0083 1418326171 22.4140
0084 1418330078 24.8090
0085 1418333984 27.5429
0086 1418337890 30.4600
0087 1418341796 33.4710
0088 1418345703 36.6690
0089 1418349609 40.1890
0090 1418353515 43.9577
0091 1418357421 47.9071
0092 1418361328 52.0876
0093 1418365234 56.6980
0094 1418369140 61.8348
0095 1418373046 66.8310
0096 1418376953 72.3787
0097 1418380859 77.9587
0098 1418384765 83.8286
0099 1418388671 90.3219
0100 1418392578 97.2571
0101 1418396484 103.7848
0102 1418400390 111.1273
0103 1418404296 118.7131
0104 1418408203 126.7796
0105 1418412109 134.6177
0106 1418416015 143.6632
0107 1418419921 153.0727
0108 1418423828 162.5693
0109 1418427734 171.8575
0110 1418431640 181.9227
0111 1418435546 192.2169
0112 1418439453 203.4655
0113 1418443359 214.6604
0114 1418447265 225.7270
0115 1418451171 236.9930
0116 1418455078 248.6170
0117 1418458984 261.3564
0118 1418462890 274.0885
0119 1418466796 288.3637
0120 1418470703 301.6595
0121 1418474609 316.0367
0122 1418478515 328.8096
0123 1418482421 343.5818
0124 1418486328 358.0117
0125 1418490234 373.1903
0126 1418494140 386.9268
0127 1418498046 402.0844
0128 1418501953 419.9825
0129 1418505859 435.6186
0130 1418509765 450.5950
0131 1418513671 466.7604
0132 1418517578 482.3754
0133 1418521484 498.6068
0134 1418525390 514.9174
0135 1418529296 531.9363
0136 1418533203 548.5117
0137 1418537109 564.8829
0138 1418541015 579.5351
0139 1418544921 597.3047
0140 1418548828 614.3539
0141 1418552734 632.0767
0142 1418556640 649.3370
0143 1418560546 664.5220
0144 1418564453 676.7878
0145 1418568359 696.9672
0146 1418572265 711.2773
0147 1418576171 730.9156
0148 1418580078 748.3195
0149 1418583984 761.7388
0150 1418587890 778.2175
0151 1418591796 789.9509
0152 1418595703 806.0605
0153 1418599609 821.9022
0154 1418603515 834.9070
0155 1418607421 855.2626
0156 1418611328 867.4630
0157 1418615234 882.1239
0158 1418619140 892.9510
0159 1418623046 905.4793
0160 1418626953 922.2693
0161 1418630859 932.4114
0162 1418634765 945.0037
0163 1418638671 954.5003
0164 1418642578 969.0683
0165 1418646484 977.9692
0166 1418650390 989.1336
0167 1418654296 996.5287
0168 1418658203 1005.8215
0169 1418662109 1014.1920
0170 1418666015 1026.6259
0171 1418669921 1037.7335
0172 1418673828 1046.6171
0173 1418677734 1053.2173
0174 1418681640 1061.8184
0175 1418685546 1068.5829
0176 1418689453 1074.3495
0177 1418693359 1082.2601
0178 1418697265 1088.4911
0179 1418701171 1094.6246
0180 1418705078 1100.5067
0181 1418708984 1103.5511
0182 1418712890 1112.5153
0183 1418716796 1111.2965
0184 1418720703 1112.3025
0185 1418724609 1115.2146
0186 1418728515 1123.2565
0187 1418732421 1123.9070
0188 1418736328 1123.9613
0189 1418740234 1128.6880
0190 1418744140 1133.0886
0191 1418748046 1132.3356
0192 1418751953 1132.6545
0193 1418755859 1135.6089
0194 1418759765 1133.9066
0195 1418763671 1135.2694
0196 1418767578 1134.6063
0197 1418771484 1127.8491
0198 1418775390 1132.1753
0199 1418779296 1134.7507
0200 1418783203 1125.8384
0201 1418787109 1132.0779
0202 1418791015 1131.7976
0203 1418794921 1125.0945
0204 1418798828 1123.0865
0205 1418802734 1120.0304
0206 1418806640 1117.7863
0207 1418810546 1111.9216
0208 1418814453 1114.5244
0209 1418818359 1116.6998
0210 1418822265 1111.4556
0211 1418826171 1112.8535
0212 1418830078 1108.9596
0213 1418833984 1105.3087
0214 1418837890 1097.4193
0215 1418841796 1099.0681
0216 1418845703 1093.9438
0217 1418849609 1089.5092
0218 1418853515 1090.0271
0219 1418857421 1084.0350
0220 1418861328 1078.3396
0221 1418865234 1079.0626
0222 1418869140 1070.7793
0223 1418873046 1068.5599
0224 1418876953 1069.1180
0225 1418880859 1064.5265
0226 1418884765 1061.6815
0227 1418888671 1058.8389
0228 1418892578 1051.7994
0229 1418896484 1051.2419
0230 1418900390 1046.8347
0231 1418904296 1049.2854
0232 1418908203 1044.5259
0233 1418912109 1036.1901
0234 1418916015 1039.1648
0235 1418919921 1039.8057
0236 1418923828 1031.8335
0237 1418927734 1025.4088
0238 1418931640 1022.5745
0239 1418935546 1021.6844
0240 1418939453 1020.2665
0241 1418943359 1018.3314
0242 1418947265 1018.5534
0243 1418951171 1014.1118
0244 1418955078 1013.5341
0245 1418958984 1016.6091
0246 1418962890 1011.6303
0247 1418966796 1008.5803
0248 1418970703 1007.1448
0249 1418974609 1002.3527
0250 1418978515 1005.1058
0251 1418982421 1003.4122
0252 1418986328 1003.6312
0253 1418990234 1003.9761
0254 1418994140 1000.8746
0255 1418998046 996.8790
0256 1419001953 1002.7770
0257 1419005859 999.5345
0258 1419009765 997.7766
0259 1419013671 997.5764
0260 1419017578 993.8754
0261 1419021484 999.7999
0262 1419025390 995.0828
0263 1419029296 992.8781
0264 1419033203 994.8868
0265 1419037109 995.4978
0266 1419041015 998.2125
0267 1419044921 996.3126
0268 1419048828 996.4886
0269 1419052734 996.5396
0270 1419056640 996.4651
0271 1419060546 996.3384
0272 1419064453 1000.4828
0273 1419068359 998.1088
0274 1419072265 997.5596
0275 1419076171 1001.2737
0276 1419080078 1004.7004
0277 1419083984 1000.3496
0278 1419087890 1004.5999
0279 1419091796 1007.1536
0280 1419095703 1006.2795
0281 1419099609 1010.2317
0282 1419103515 1007.3412
0283 1419107421 1003.1736
0284 1419111328 1012.5001
0285 1419115234 1014.5554
0286 1419119140 1010.7441
0287 1419123046 1015.5106
0288 1419126953 1015.8311
0289 1419130859 1016.6339
0290 1419134765 1014.6792
0291 1419138671 1017.4498
0292 1419142578 1020.2201
0293 1419146484 1022.3204
0294 1419150390 1024.7382
0295 1419154296 1026.8229
0296 1419158203 1027.1057
0297 1419162109 1024.2374
0298 1419166015 1029.6030
0299 1419169921 1028.4883
0300 1419173828 1033.7891
0301 1419177734 1034.1949
0302 1419181640 1033.5306
0303 1419185546 1036.9645
0304 1419189453 1039.6949
0305 1419193359 1039.9764
0306 1419197265 1037.7928
0307 1419201171 1043.7457
0308 1419205078 1044.2250
0309 1419208984 1043.3685
0310 1419212890 1041.3821
0311 1419216796 1044.4355
0312 1419220703 1047.9668
0313 1419224609 1045.5811
0314 1419228515 1050.5820
0315 1419232421 1050.5564
0316 1419236328 1047.8442
0317 1419240234 1054.1910
0318 1419244140 1054.5977
0319 1419248046 1052.9619
0320 1419251953 1052.5825
0321 1419255859 1058.4073
0322 1419259765 1053.6572
0323 1419263671 1056.3563
0324 1419267578 1060.0789
0325 1419271484 1058.6967
0326 1419275390 1057.2070
0327 1419279296 1060.9846
0328 1419283203 1059.0214
0329 1419287109 1060.9415
0330 1419291015 1064.1777
0331 1419294921 1063.9370
0332 1419298828 1062.7727
0333 1419302734 1064.7775
0334 1419306640 1063.7573
0335 1419310546 1064.1897
0336 1419314453 1068.6150
0337 1419318359 1071.4675
0338 1419322265 1066.0283
0339 1419326171 1069.1992
0340 1419330078 1067.7998
0341 1419333984 1067.5475
0342 1419337890 1068.7791
0343 1419341796 1071.2732
0344 1419345703 1073.8597
0345 1419349609 1072.5356
0346 1419353515 1073.0044
0347 1419357421 1071.3003
0348 1419361328 1070.3801
0349 1419365234 1073.9503
0350 1419369140 1077.9977
0351 1419373046 1074.2789
0352 1419376953 1077.2166
0353 1419380859 1075.1398
0354 1419384765 1067.8735
0355 1419388671 1073.3596
0356 1419392578 1073.2769
0357 1419396484 1072.4576
0358 1419400390 1073.9788
0359 1419404296 1072.0068
0360 1419408203 1074.0143
0361 1419412109 1073.4916
0362 1419416015 1074.5597
0363 1419419921 1072.9777
0364 1419423828 1072.6815
0365 1419427734 1075.3302
0366 1419431640 1071.6191
0367 1419435546 1074.0092
0368 1419439453 1072.4872
0369 1419443359 1075.8744
0370 1419447265 1074.7159
0371 1419451171 1072.8375
0372 1419455078 1077.7791
0373 1419458984 1075.6112
0374 1419462890 1080.2476
0375 1419466796 1073.0995
0376 1419470703 1077.9143
0377 1419474609 1078.0613
0378 1419478515 1076.1447
0379 1419482421 1078.8815
0380 1419486328 1075.4949
0381 1419490234 1075.2036
0382 1419494140 1073.8085
0383 1419498046 1079.3806
0384 1419501953 1080.9519
0385 1419505859 1073.5168
0386 1419509765 1078.5123
0387 1419513671 1078.2040
0388 1419517578 1078.5607
0389 1419521484 1076.8029
0390 1419525390 1074.4117
0391 1419529296 1075.5812
0392 1419533203 1078.2264
0393 1419537109 1077.7336
0394 1419541015 1076.7026
0395 1419544921 1078.5172
0396 1419548828 1076.9673
0397 1419552734 1076.2626
0398 1419556640 1078.0520
0399 1419560546 1077.0436
0400 1419564453 1075.1925
0401 1419568359 1078.6694
0402 1419572265 1078.7318
0403 1419576171 1076.2334
0404 1419580078 1079.1841
0405 1419583984 1077.0631
0406 1419587890 1076.2434
0407 1419591796 1082.4740
0408 1419595703 1082.0040
0409 1419599609 1082.9939
0410 1419603515 1078.5924
0411 1419607421 1080.1693
0412 1419611328 1078.1794
0413 1419615234 1079.6691
0414 1419619140 1077.9438
0415 1419623046 1081.6753
0416 1419626953 1079.4838
0417 1419630859 1076.6318
0418 1419634765 1073.2344
0419 1419638671 1073.2766
0420 1419642578 1072.8820
0421 1419646484 1073.6414
0422 1419650390 1072.7660
0423 1419654296 1077.3191
0424 1419658203 1077.3519
0425 1419662109 1074.5364
0426 1419666015 1074.1085
0427 1419669921 1074.3302
0428 1419673828 1071.4976
0429 1419677734 1073.1458
0430 1419681640 1071.3232
0431 1419685546 1071.5104
0432 1419689453 1067.8914
0433 1419693359 1071.7061
0434 1419697265 1064.5338
0435 1419701171 1069.7360
0436 1419705078 1065.8547
0437 1419708984 1066.5283
0438 1419712890 1066.5554
0439 1419716796 1062.7003
0440 1419720703 1061.7275
0441 1419724609 1062.2699
0442 1419728515 1062.9332
0443 1419732421 1060.9855
0444 1419736328 1060.7817
0445 1419740234 1059.9719
0446 1419744140 1054.1556
0447 1419748046 1058.2070
0448 1419751953 1052.6694
0449 1419755859 1054.0261
0450 1419759765 1054.9401
0451 1419763671 1057.8485
0452 1419767578 1053.8312
0453 1419771484 1051.6094
0454 1419775390 1052.8066
0455 1419779296 1053.3165
0456 1419783203 1047.7975
0457 1419787109 1048.4723
0458 1419791015 1049.4146
0459 1419794921 1045.5531
0460 1419798828 1043.9417
0461 1419802734 1040.5427
0462 1419806640 1043.8661
0463 1419810546 1042.2227
0464 1419814453 1042.6676
0465 1419818359 1041.9099
0466 1419822265 1039.5526
0467 1419826171 1039.3597
0468 1419830078 1038.3362
0469 1419833984 1039.4504
0470 1419837890 1037.9735
0471 1419841796 1036.3047
0472 1419845703 1033.9017
0473 1419849609 1030.1110
0474 1419853515 1031.7897
0475 1419857421 1030.3301
0476 1419861328 1034.2986
0477 1419865234 1030.4866
0478 1419869140 1029.0890
0479 1419873046 1025.4669
0480 1419876953 1025.1396
0481 1419880859 1026.6414
0482 1419884765 1024.9852
0483 1419888671 1023.8753
0484 1419892578 1023.7219
0485 1419896484 1027.1957
0486 1419900390 1023.5131
0487 1419904296 1022.5197
0488 1419908203 1021.7506
0489 1419912109 1019.7452
0490 1419916015 1022.5656
0491 1419919921 1023.3710
0492 1419923828 1023.8389
0493 1419927734 1018.7840
0494 1419931640 1023.1323
0495 1419935546 1021.5732
0496 1419939453 1020.0613
0497 1419943359 1020.7224
0498 1419947265 1019.6058
0499 1419951171 1022.5126
0500 1419955078 1015.8577
0501 1419958984 1021.1461
0502 1419962890 1018.4816
0503 1419966796 1016.2814
0504 1419970703 1019.3598
0505 1419974609 1018.3694
0506 1419978515 1016.0171
0507 1419982421 1013.7928
0508 1419986328 1020.5259
0509 1419990234 1020.2198
0510 1419994140 1016.2724
0511 1419998046 1018.8860
0512 1420001953 1020.4277
0513 1420005859 1019.7461
0514 1420009765 1018.0140
0515 1420013671 1012.8051
0516 1420017578 1019.3527
0517 1420021484 1017.9594
0518 1420025390 1016.0035
0519 1420029296 1016.2462
0520 1420033203 1014.9425
0521 1420037109 1018.6711
0522 1420041015 1014.4544
0523 1420044921 1018.0451
0524 1420048828 1019.6658
0525 1420052734 1018.0656
0526 1420056640 1021.3179
0527 1420060546 1018.9392
0528 1420064453 1019.2646
0529 1420068359 1021.3771
0530 1420072265 1020.5480
0531 1420076171 1014.9911
0532 1420080078 1017.5356
0533 1420083984 1018.7145
0534 1420087890 1019.3938
0535 1420091796 1019.2758
0536 1420095703 1018.7721
0537 1420099609 1018.2109
0538 1420103515 1020.3850
0539 1420107421 1018.3525
0540 1420111328 1019.2112
0541 1420115234 1021.3505
0542 1420119140 1020.4030
0543 1420123046 1021.2884
0544 1420126953 1016.5884
0545 1420130859 1021.8710
0546 1420134765 1024.3669
0547 1420138671 1013.8691
0548 1420142578 1020.3571
0549 1420146484 1021.7351
0550 1420150390 1020.5328
0551 1420154296 1019.0450
0552 1420158203 1015.5460
0553 1420162109 1020.3846
0554 1420166015 1015.2783
0555 1420169921 1020.7499
0556 1420173828 1018.1193
0557 1420177734 1020.3325
0558 1420181640 1016.8093
0559 1420185546 1016.4461
0560 1420189453 1017.4437
0561 1420193359 1021.6027
0562 1420197265 1015.8124
0563 1420201171 1017.5381
0564 1420205078 1013.8328
0565 1420208984 1015.3723
0566 1420212890 1015.6347
0567 1420216796 1017.1280
0568 1420220703 1015.6088
0569 1420224609 1017.5428
0570 1420228515 1015.4393
0571 1420232421 1014.2469
0572 1420236328 1011.1501
0573 1420240234 1007.5988
0574 1420244140 1012.5352
0575 1420248046 1010.5838
0576 1420251953 1014.6550
0577 1420255859 1009.2291
0578 1420259765 1010.4829
0579 1420263671 1009.7232
0580 1420267578 1009.8658
0581 1420271484 1008.6754
0582 1420275390 1004.9769
0583 1420279296 1006.0891
0584 1420283203 1009.9334
0585 1420287109 1006.8726
0586 1420291015 1002.7864
0587 1420294921 1005.7902
0588 1420298828 1005.9212
0589 1420302734 1007.0855
0590 1420306640 1002.7805
0591 1420310546 1000.3050
0592 1420314453 1001.3698
0593 1420318359 1002.1011
0594 1420322265 1000.2270
0595 1420326171 998.5294
0596 1420330078 1003.4307
0597 1420333984 1004.0850
0598 1420337890 1000.1392
0599 1420341796 1000.5895
0600 1420345703 996.9246
0601 1420349609 1000.8885
0602 1420353515 997.7049
0603 1420357421 1000.3086
0604 1420361328 996.3133
0605 1420365234 998.9491
0606 1420369140 995.8319
0607 1420373046 995.3503
0608 1420376953 997.2305
0609 1420380859 989.5645
0610 1420384765 994.4867
0611 1420388671 989.2474
0612 1420392578 994.3380
0613 1420396484 990.1432
0614 1420400390 989.3737
0615 1420404296 987.5326
0616 1420408203 988.1660
0617 1420412109 992.8423
0618 1420416015 987.5024
0619 1420419921 987.7335
0620 1420423828 989.5898
0621 1420427734 985.0110
0622 1420431640 986.6475
0623 1420435546 985.0416
0624 1420439453 983.4542
0625 1420443359 983.1838
0626 1420447265 983.4750
0627 1420451171 984.4416
0628 1420455078 986.4844
0629 1420458984 982.7474
0630 1420462890 979.9958
0631 1420466796 980.7755
0632 1420470703 980.6816
0633 1420474609 981.6730
0634 1420478515 984.1541
0635 1420482421 984.1764
0636 1420486328 984.4166
0637 1420490234 982.7535
0638 1420494140 981.4590
0639 1420498046 983.9645
0640 1420501953 978.8800
0641 1420505859 979.6616
0642 1420509765 981.4298
0643 1420513671 983.6758
0644 1420517578 983.3093
0645 1420521484 983.5253
0646 1420525390 984.5158
0647 1420529296 986.1109
0648 1420533203 981.3165
0649 1420537109 981.7990
0650 1420541015 985.6376
0651 1420544921 986.4944
0652 1420548828 989.3936
0653 1420552734 983.9441
0654 1420556640 984.4590
0655 1420560546 982.5519
0656 1420564453 980.5689
0657 1420568359 987.2357
0658 1420572265 986.6268
0659 1420576171 985.1118
0660 1420580078 982.1918
0661 1420583984 986.4611
0662 1420587890 982.6475
0663 1420591796 981.1924
0664 1420595703 983.3557
0665 1420599609 984.6345
0666 1420603515 981.8091
0667 1420607421 983.5122
0668 1420611328 985.5806
0669 1420615234 985.8152
0670 1420619140 979.4146
0671 1420623046 981.9378
0672 1420626953 983.8033
0673 1420630859 985.5005
0674 1420634765 988.1654
0675 1420638671 983.4250
0676 1420642578 985.6650
0677 1420646484 983.1323
0678 1420650390 985.1125
0679 1420654296 983.3458
0680 1420658203 982.0231
0681 1420662109 981.2513
0682 1420666015 981.3135
0683 1420669921 979.9702
0684 1420673828 982.7984
0685 1420677734 982.0490
0686 1420681640 980.5472
0687 1420685546 981.4055
0688 1420689453 980.5783
0689 1420693359 982.0802
0690 1420697265 981.5306
0691 1420701171 978.1473
0692 1420705078 977.1144
0693 1420708984 983.0009
0694 1420712890 981.8487
0695 1420716796 981.0795
0696 1420720703 977.2681
0697 1420724609 975.4831
0698 1420728515 974.6771
0699 1420732421 977.8635
0700 1420736328 975.7779
0701 1420740234 974.5185
0702 1420744140 971.7290
0703 1420748046 975.7022
0704 1420751953 974.5740
0705 1420755859 975.3001
0706 1420759765 976.5712
0707 1420763671 970.1638
0708 1420767578 970.3740
0709 1420771484 972.4489
0710 1420775390 970.8950
0711 1420779296 970.4500
0712 1420783203 972.6932
0713 1420787109 970.5074
0714 1420791015 968.0442
0715 1420794921 967.6978
0716 1420798828 967.4870
0717 1420802734 969.6789
0718 1420806640 966.1479
0719 1420810546 964.9977
0720 1420814453 964.4644
0721 1420818359 966.2360
0722 1420822265 963.1330
0723 1420826171 965.7416
0724 1420830078 961.7631
0725 1420833984 966.0251
0726 1420837890 964.4837
0727 1420841796 961.9013
0728 1420845703 965.7628
0729 1420849609 961.8474
0730 1420853515 963.9704
0731 1420857421 958.7812
0732 1420861328 963.6143
0733 1420865234 964.8745
