# File: 20-11-28T180022.hot
# NOTEA     = RSP1A+GPIOLabs Pi #1 On Horn
# NOTEB     = Sdrplay 8 MHz Test
# OBSERVER  = Science Aficionado
# DEVICE    = SDRPlay RSP1A
# DATADIR   = ../data/
# SITE      = RSP1A+GPIOLabs Pi #1 On Horn
# CITY      = Green Bank
# REGION    = West Virginia
# COUNTRY   = US
# TELTYPE   = Bubble Wrap  Horn
# FRAME     = TOPO
# GAIN1     = 0.0
# GAIN2     = 12.0
# GAIN3     = 12.0
# GAIN4     = 0.0
# Count     = 360000
# CenterFreq= 1422000000.0
# Bandwidth = 8000000.0
# Duration  = 157.30314
# DeltaX    = 5859.375
# TSYS      = 200.0
# TRX       = 100.0
# TRMS      = 2.0
# TINT      = 1.0
# KPERC     = 100.0
# GAINFACT  = 1.0
# BUNIT     = Counts
# NCHAN     = 2048
# NSPEC     = 1
# NTIME     = 0
# NSAMPLES  = 0
# EPEAK     = 4.10875183718
# ERMS      = 0.995973393526
# EMJD      = 58568.808999981004 
# REFCHAN   = 1024.0
# REFSAMPL  = 256.0
# NAVE      = 600
# NMEDIAN   = 1024
# Fft_rate  = 5000
# UTC       = 2020-11-28 18:00:22.705730
# SECONDS   =       0.0000000000 
# LST       = 17:13:23.160
# AZ        = 180.0
# EL        = -40.0
# TELLON    = -79:50:22.920
# TELLAT    = +38:25:59.160
# RA        = 05:44:15.950
# DEC       = -88:27:57.900
# GALLON    = 301:16:31.40
# GALLAT    = -27:33:42.10
# ALT_SUN   = +28:51:11.5
# AZ_SUN    = +194:02:47.7
# ETAA      = 0.8
# ETAB      = 0.99
# POLANGLE  = 0.0
# TELSIZEAM = 1.0
# TELSIZEBM = 1.0
# AST_VERS  = 05.01
0000 1418001953 0.8210
0001 1418005859 0.8193
0002 1418009765 0.8204
0003 1418013671 0.8219
0004 1418017578 0.8241
0005 1418021484 0.8232
0006 1418025390 0.8278
0007 1418029296 0.8267
0008 1418033203 0.8327
0009 1418037109 0.8314
0010 1418041015 0.8331
0011 1418044921 0.8384
0012 1418048828 0.8410
0013 1418052734 0.8419
0014 1418056640 0.8447
0015 1418060546 0.8451
0016 1418064453 0.8478
0017 1418068359 0.8488
0018 1418072265 0.8479
0019 1418076171 0.8450
0020 1418080078 0.8455
0021 1418083984 0.8350
0022 1418087890 0.8315
0023 1418091796 0.8264
0024 1418095703 0.8226
0025 1418099609 0.8157
0026 1418103515 0.8028
0027 1418107421 0.7898
0028 1418111328 0.7777
0029 1418115234 0.7627
0030 1418119140 0.7410
0031 1418123046 0.7239
0032 1418126953 0.7027
0033 1418130859 0.6813
0034 1418134765 0.6551
0035 1418138671 0.6281
0036 1418142578 0.5948
0037 1418146484 0.5617
0038 1418150390 0.5278
0039 1418154296 0.4906
0040 1418158203 0.4527
0041 1418162109 0.4119
0042 1418166015 0.3713
0043 1418169921 0.3279
0044 1418173828 0.2873
0045 1418177734 0.2454
0046 1418181640 0.2049
0047 1418185546 0.1659
0048 1418189453 0.1296
0049 1418193359 0.0976
0050 1418197265 0.0704
0051 1418201171 0.0496
0052 1418205078 0.0362
0053 1418208984 0.0323
0054 1418212890 0.0397
0055 1418216796 0.0602
0056 1418220703 0.0960
0057 1418224609 0.1494
0058 1418228515 0.2234
0059 1418232421 0.3211
0060 1418236328 0.4461
0061 1418240234 0.5997
0062 1418244140 0.7855
0063 1418248046 1.0091
0064 1418251953 1.2657
0065 1418255859 1.5860
0066 1418259765 1.9435
0067 1418263671 2.3624
0068 1418267578 2.8389
0069 1418271484 3.3846
0070 1418275390 3.9896
0071 1418279296 4.6941
0072 1418283203 5.4673
0073 1418287109 6.3382
0074 1418291015 7.2886
0075 1418294921 8.3815
0076 1418298828 9.5639
0077 1418302734 10.8270
0078 1418306640 12.3153
0079 1418310546 13.9080
0080 1418314453 15.5662
0081 1418318359 17.3873
0082 1418322265 19.4215
0083 1418326171 21.6405
0084 1418330078 23.9602
0085 1418333984 26.5466
0086 1418337890 29.2978
0087 1418341796 32.2477
0088 1418345703 35.4169
0089 1418349609 38.9698
0090 1418353515 42.5554
0091 1418357421 46.4538
0092 1418361328 50.6431
0093 1418365234 54.9014
0094 1418369140 59.5342
0095 1418373046 64.4589
0096 1418376953 69.7997
0097 1418380859 75.4789
0098 1418384765 81.5005
0099 1418388671 87.2056
0100 1418392578 93.7337
0101 1418396484 100.8200
0102 1418400390 107.4456
0103 1418404296 114.8803
0104 1418408203 122.6014
0105 1418412109 130.3273
0106 1418416015 138.4411
0107 1418419921 147.4041
0108 1418423828 156.3583
0109 1418427734 166.5134
0110 1418431640 175.4850
0111 1418435546 185.5123
0112 1418439453 196.2334
0113 1418443359 206.6404
0114 1418447265 217.7124
0115 1418451171 229.9366
0116 1418455078 240.1781
0117 1418458984 252.9331
0118 1418462890 266.1119
0119 1418466796 278.4243
0120 1418470703 291.9290
0121 1418474609 305.9532
0122 1418478515 318.6768
0123 1418482421 330.7669
0124 1418486328 346.8292
0125 1418490234 360.2869
0126 1418494140 375.9746
0127 1418498046 388.8975
0128 1418501953 404.9643
0129 1418505859 418.3725
0130 1418509765 434.0099
0131 1418513671 448.8351
0132 1418517578 466.9131
0133 1418521484 482.2334
0134 1418525390 497.9205
0135 1418529296 512.8886
0136 1418533203 526.9244
0137 1418537109 545.0549
0138 1418541015 561.6414
0139 1418544921 577.3063
0140 1418548828 594.2946
0141 1418552734 610.2407
0142 1418556640 624.7540
0143 1418560546 640.6704
0144 1418564453 658.2962
0145 1418568359 672.2269
0146 1418572265 689.9345
0147 1418576171 706.2145
0148 1418580078 722.1770
0149 1418583984 735.7487
0150 1418587890 749.2568
0151 1418591796 762.1896
0152 1418595703 779.1224
0153 1418599609 796.1600
0154 1418603515 808.8704
0155 1418607421 823.5439
0156 1418611328 837.8781
0157 1418615234 853.5588
0158 1418619140 863.1052
0159 1418623046 873.1098
0160 1418626953 888.1279
0161 1418630859 899.9510
0162 1418634765 906.0383
0163 1418638671 923.2487
0164 1418642578 931.4927
0165 1418646484 941.6054
0166 1418650390 957.2698
0167 1418654296 970.2740
0168 1418658203 976.1422
0169 1418662109 980.4364
0170 1418666015 998.3113
0171 1418669921 1000.9427
0172 1418673828 1009.5422
0173 1418677734 1016.6728
0174 1418681640 1019.7078
0175 1418685546 1032.1901
0176 1418689453 1038.6526
0177 1418693359 1039.4773
0178 1418697265 1052.1605
0179 1418701171 1055.4097
0180 1418705078 1060.0256
0181 1418708984 1064.3370
0182 1418712890 1069.9692
0183 1418716796 1075.7942
0184 1418720703 1080.5977
0185 1418724609 1082.5081
0186 1418728515 1086.6785
0187 1418732421 1084.6431
0188 1418736328 1087.1832
0189 1418740234 1088.9419
0190 1418744140 1092.2517
0191 1418748046 1093.3386
0192 1418751953 1090.6636
0193 1418755859 1092.0958
0194 1418759765 1096.0830
0195 1418763671 1095.6072
0196 1418767578 1093.8228
0197 1418771484 1091.3613
0198 1418775390 1089.1484
0199 1418779296 1091.3541
0200 1418783203 1089.0327
0201 1418787109 1090.1229
0202 1418791015 1090.2122
0203 1418794921 1091.1416
0204 1418798828 1082.9171
0205 1418802734 1087.1740
0206 1418806640 1081.6661
0207 1418810546 1082.3362
0208 1418814453 1075.0809
0209 1418818359 1073.8992
0210 1418822265 1076.3069
0211 1418826171 1071.0568
0212 1418830078 1065.1150
0213 1418833984 1064.8156
0214 1418837890 1061.4659
0215 1418841796 1058.3010
0216 1418845703 1052.0013
0217 1418849609 1053.3763
0218 1418853515 1048.8966
0219 1418857421 1046.7264
0220 1418861328 1041.6289
0221 1418865234 1041.4203
0222 1418869140 1039.5187
0223 1418873046 1031.9681
0224 1418876953 1030.8901
0225 1418880859 1023.9166
0226 1418884765 1019.5059
0227 1418888671 1018.7194
0228 1418892578 1020.6768
0229 1418896484 1017.2858
0230 1418900390 1015.0372
0231 1418904296 1011.4049
0232 1418908203 1007.0284
0233 1418912109 1006.9608
0234 1418916015 1002.8925
0235 1418919921 998.9749
0236 1418923828 994.4378
0237 1418927734 993.4745
0238 1418931640 993.2747
0239 1418935546 986.0851
0240 1418939453 985.8134
0241 1418943359 981.1910
0242 1418947265 981.5179
0243 1418951171 981.5039
0244 1418955078 972.0497
0245 1418958984 973.7390
0246 1418962890 975.5330
0247 1418966796 976.2615
0248 1418970703 975.3919
0249 1418974609 968.5938
0250 1418978515 967.2347
0251 1418982421 966.0226
0252 1418986328 968.0378
0253 1418990234 967.5165
0254 1418994140 965.0087
0255 1418998046 966.1886
0256 1419001953 962.6282
0257 1419005859 962.5810
0258 1419009765 967.4581
0259 1419013671 963.3095
0260 1419017578 962.2137
0261 1419021484 962.8962
0262 1419025390 962.8058
0263 1419029296 961.9487
0264 1419033203 961.6274
0265 1419037109 959.7996
0266 1419041015 958.6768
0267 1419044921 960.7971
0268 1419048828 961.0526
0269 1419052734 960.4787
0270 1419056640 962.3560
0271 1419060546 965.8467
0272 1419064453 961.6927
0273 1419068359 964.3481
0274 1419072265 963.1822
0275 1419076171 963.8266
0276 1419080078 964.6645
0277 1419083984 968.3698
0278 1419087890 965.5723
0279 1419091796 969.6879
0280 1419095703 968.3606
0281 1419099609 970.0319
0282 1419103515 970.8781
0283 1419107421 972.1968
0284 1419111328 975.0975
0285 1419115234 978.4990
0286 1419119140 979.5823
0287 1419123046 979.9570
0288 1419126953 980.3288
0289 1419130859 980.9846
0290 1419134765 983.4684
0291 1419138671 981.8395
0292 1419142578 980.7410
0293 1419146484 987.1580
0294 1419150390 986.9422
0295 1419154296 991.7237
0296 1419158203 990.9322
0297 1419162109 995.1982
0298 1419166015 997.0594
0299 1419169921 994.6155
0300 1419173828 993.6685
0301 1419177734 999.3646
0302 1419181640 1000.3873
0303 1419185546 999.8863
0304 1419189453 1004.2429
0305 1419193359 1000.2620
0306 1419197265 1004.2632
0307 1419201171 1003.2877
0308 1419205078 1005.2524
0309 1419208984 1007.5578
0310 1419212890 1006.4284
0311 1419216796 1008.3571
0312 1419220703 1010.0546
0313 1419224609 1012.2125
0314 1419228515 1012.7502
0315 1419232421 1016.5667
0316 1419236328 1013.7117
0317 1419240234 1016.0656
0318 1419244140 1018.0067
0319 1419248046 1018.4310
0320 1419251953 1019.1405
0321 1419255859 1019.4857
0322 1419259765 1021.8251
0323 1419263671 1016.0935
0324 1419267578 1017.8437
0325 1419271484 1024.4821
0326 1419275390 1023.9103
0327 1419279296 1022.8521
0328 1419283203 1026.3246
0329 1419287109 1021.8610
0330 1419291015 1027.2883
0331 1419294921 1023.3067
0332 1419298828 1030.4592
0333 1419302734 1030.6976
0334 1419306640 1029.0914
0335 1419310546 1031.4734
0336 1419314453 1032.3252
0337 1419318359 1034.3302
0338 1419322265 1031.1161
0339 1419326171 1030.3983
0340 1419330078 1030.6748
0341 1419333984 1028.3087
0342 1419337890 1034.0642
0343 1419341796 1032.9083
0344 1419345703 1036.9194
0345 1419349609 1036.8992
0346 1419353515 1035.3063
0347 1419357421 1035.7059
0348 1419361328 1035.9843
0349 1419365234 1035.0991
0350 1419369140 1036.3671
0351 1419373046 1034.1846
0352 1419376953 1035.0299
0353 1419380859 1036.4037
0354 1419384765 1034.2814
0355 1419388671 1032.3654
0356 1419392578 1032.9336
0357 1419396484 1035.6407
0358 1419400390 1036.9144
0359 1419404296 1035.2992
0360 1419408203 1040.1333
0361 1419412109 1036.7346
0362 1419416015 1038.9698
0363 1419419921 1039.8333
0364 1419423828 1038.2327
0365 1419427734 1035.2854
0366 1419431640 1036.1886
0367 1419435546 1035.4611
0368 1419439453 1039.4010
0369 1419443359 1039.0121
0370 1419447265 1038.5244
0371 1419451171 1038.3331
0372 1419455078 1037.9714
0373 1419458984 1041.2847
0374 1419462890 1037.4988
0375 1419466796 1039.1854
0376 1419470703 1040.8999
0377 1419474609 1037.3997
0378 1419478515 1038.7251
0379 1419482421 1042.2312
0380 1419486328 1035.5271
0381 1419490234 1035.4353
0382 1419494140 1038.3870
0383 1419498046 1039.8131
0384 1419501953 1041.5560
0385 1419505859 1043.0049
0386 1419509765 1040.5756
0387 1419513671 1042.4991
0388 1419517578 1047.0508
0389 1419521484 1044.6735
0390 1419525390 1044.5367
0391 1419529296 1039.0284
0392 1419533203 1043.0419
0393 1419537109 1043.3073
0394 1419541015 1042.5062
0395 1419544921 1044.4358
0396 1419548828 1041.9539
0397 1419552734 1037.8781
0398 1419556640 1041.0156
0399 1419560546 1039.5278
0400 1419564453 1036.5563
0401 1419568359 1041.9999
0402 1419572265 1041.9055
0403 1419576171 1039.7379
0404 1419580078 1040.4529
0405 1419583984 1041.8629
0406 1419587890 1041.8347
0407 1419591796 1043.4591
0408 1419595703 1042.9512
0409 1419599609 1041.4191
0410 1419603515 1038.5930
0411 1419607421 1039.6414
0412 1419611328 1039.8307
0413 1419615234 1039.6708
0414 1419619140 1037.4504
0415 1419623046 1044.1361
0416 1419626953 1043.0916
0417 1419630859 1036.3561
0418 1419634765 1036.5592
0419 1419638671 1040.0476
0420 1419642578 1039.7183
0421 1419646484 1037.7507
0422 1419650390 1036.9327
0423 1419654296 1037.1471
0424 1419658203 1034.3888
0425 1419662109 1036.3412
0426 1419666015 1036.4633
0427 1419669921 1035.8640
0428 1419673828 1031.4845
0429 1419677734 1038.4727
0430 1419681640 1031.2251
0431 1419685546 1032.6805
0432 1419689453 1032.4515
0433 1419693359 1031.0551
0434 1419697265 1030.4003
0435 1419701171 1031.1355
0436 1419705078 1027.3932
0437 1419708984 1032.1141
0438 1419712890 1028.9681
0439 1419716796 1025.1617
0440 1419720703 1024.7604
0441 1419724609 1023.2246
0442 1419728515 1025.6357
0443 1419732421 1026.4082
0444 1419736328 1025.3014
0445 1419740234 1024.8124
0446 1419744140 1020.7499
0447 1419748046 1022.3632
0448 1419751953 1018.9011
0449 1419755859 1018.8425
0450 1419759765 1023.3162
0451 1419763671 1020.1745
0452 1419767578 1021.1734
0453 1419771484 1014.7234
0454 1419775390 1016.2880
0455 1419779296 1013.3494
0456 1419783203 1010.2531
0457 1419787109 1012.4035
0458 1419791015 1010.6533
0459 1419794921 1011.3470
0460 1419798828 1010.8932
0461 1419802734 1004.5727
0462 1419806640 1007.9145
0463 1419810546 1006.4653
0464 1419814453 1003.8342
0465 1419818359 1006.4907
0466 1419822265 1003.7117
0467 1419826171 1001.7075
0468 1419830078 1000.9996
0469 1419833984 1000.2687
0470 1419837890 998.4775
0471 1419841796 1001.5689
0472 1419845703 997.7893
0473 1419849609 998.9351
0474 1419853515 1000.4255
0475 1419857421 997.2333
0476 1419861328 994.4827
0477 1419865234 995.2253
0478 1419869140 994.4916
0479 1419873046 990.3478
0480 1419876953 988.0670
0481 1419880859 991.8540
0482 1419884765 995.4904
0483 1419888671 993.9976
0484 1419892578 987.8167
0485 1419896484 992.5226
0486 1419900390 984.5517
0487 1419904296 986.2883
0488 1419908203 984.8126
0489 1419912109 985.3254
0490 1419916015 986.1655
0491 1419919921 984.5820
0492 1419923828 988.0081
0493 1419927734 987.5471
0494 1419931640 985.9312
0495 1419935546 984.8585
0496 1419939453 982.7644
0497 1419943359 984.6770
0498 1419947265 987.4290
0499 1419951171 983.9426
0500 1419955078 986.7366
0501 1419958984 985.9112
0502 1419962890 980.8802
0503 1419966796 979.9005
0504 1419970703 985.0909
0505 1419974609 984.1489
0506 1419978515 980.5810
0507 1419982421 984.6951
0508 1419986328 983.6215
0509 1419990234 982.6204
0510 1419994140 981.6253
0511 1419998046 983.7682
0512 1420001953 983.3845
0513 1420005859 983.5918
0514 1420009765 984.1929
0515 1420013671 979.1116
0516 1420017578 983.8928
0517 1420021484 986.7648
0518 1420025390 987.3717
0519 1420029296 984.4270
0520 1420033203 981.6867
0521 1420037109 983.9686
0522 1420041015 984.9440
0523 1420044921 984.8133
0524 1420048828 983.1644
0525 1420052734 984.4891
0526 1420056640 985.4734
0527 1420060546 987.6177
0528 1420064453 984.8112
0529 1420068359 982.4010
0530 1420072265 983.3577
0531 1420076171 983.5038
0532 1420080078 982.7698
0533 1420083984 985.1413
0534 1420087890 984.9899
0535 1420091796 984.3685
0536 1420095703 983.7343
0537 1420099609 987.8450
0538 1420103515 985.8386
0539 1420107421 981.8383
0540 1420111328 984.1874
0541 1420115234 990.0216
0542 1420119140 990.2515
0543 1420123046 984.6256
0544 1420126953 981.9623
0545 1420130859 987.8094
0546 1420134765 986.2164
0547 1420138671 987.1687
0548 1420142578 985.8280
0549 1420146484 985.2581
0550 1420150390 988.2948
0551 1420154296 988.1921
0552 1420158203 985.1332
0553 1420162109 985.6530
0554 1420166015 983.9584
0555 1420169921 987.3167
0556 1420173828 986.6293
0557 1420177734 986.1799
0558 1420181640 986.1606
0559 1420185546 982.5407
0560 1420189453 978.6194
0561 1420193359 983.0819
0562 1420197265 986.3700
0563 1420201171 982.3239
0564 1420205078 982.5162
0565 1420208984 982.5325
0566 1420212890 979.7466
0567 1420216796 980.0533
0568 1420220703 980.4821
0569 1420224609 981.5156
0570 1420228515 984.3986
0571 1420232421 979.3913
0572 1420236328 980.0978
0573 1420240234 980.8395
0574 1420244140 977.3830
0575 1420248046 975.9845
0576 1420251953 975.8410
0577 1420255859 973.0543
0578 1420259765 975.9824
0579 1420263671 977.4645
0580 1420267578 977.5040
0581 1420271484 972.6765
0582 1420275390 976.2286
0583 1420279296 979.7224
0584 1420283203 973.0947
0585 1420287109 972.3684
0586 1420291015 975.7117
0587 1420294921 971.5493
0588 1420298828 971.2005
0589 1420302734 974.0635
0590 1420306640 970.8275
0591 1420310546 975.1489
0592 1420314453 971.1161
0593 1420318359 968.5667
0594 1420322265 969.0554
0595 1420326171 973.6782
0596 1420330078 969.5540
0597 1420333984 966.5988
0598 1420337890 967.6215
0599 1420341796 967.1231
0600 1420345703 967.2912
0601 1420349609 964.4712
0602 1420353515 964.3128
0603 1420357421 962.8380
0604 1420361328 963.7782
0605 1420365234 963.5161
0606 1420369140 962.3568
0607 1420373046 961.2464
0608 1420376953 961.4811
0609 1420380859 956.3463
0610 1420384765 959.7606
0611 1420388671 957.7366
0612 1420392578 960.2453
0613 1420396484 959.8495
0614 1420400390 959.7326
0615 1420404296 958.3893
0616 1420408203 958.3542
0617 1420412109 957.7507
0618 1420416015 955.4651
0619 1420419921 954.5487
0620 1420423828 955.3386
0621 1420427734 955.3417
0622 1420431640 957.2834
0623 1420435546 957.5667
0624 1420439453 956.9985
0625 1420443359 953.3566
0626 1420447265 954.8764
0627 1420451171 950.0956
0628 1420455078 954.4955
0629 1420458984 949.3361
0630 1420462890 948.0266
0631 1420466796 954.5603
0632 1420470703 952.3397
0633 1420474609 950.7407
0634 1420478515 951.7965
0635 1420482421 952.9518
0636 1420486328 949.1794
0637 1420490234 949.7872
0638 1420494140 945.4706
0639 1420498046 950.6693
0640 1420501953 952.0649
0641 1420505859 953.2318
0642 1420509765 952.5391
0643 1420513671 951.5393
0644 1420517578 950.8323
0645 1420521484 948.6853
0646 1420525390 949.7760
0647 1420529296 952.0705
0648 1420533203 954.0900
0649 1420537109 954.2008
0650 1420541015 954.4783
0651 1420544921 949.0978
0652 1420548828 955.9430
0653 1420552734 951.0507
0654 1420556640 952.3568
0655 1420560546 951.4012
0656 1420564453 952.2405
0657 1420568359 950.8645
0658 1420572265 950.5902
0659 1420576171 949.6055
0660 1420580078 947.5328
0661 1420583984 950.9055
0662 1420587890 950.8858
0663 1420591796 953.0901
0664 1420595703 954.1390
0665 1420599609 953.2256
0666 1420603515 949.3296
0667 1420607421 946.3639
0668 1420611328 951.2850
0669 1420615234 949.2145
0670 1420619140 951.0875
0671 1420623046 951.4144
0672 1420626953 951.4531
0673 1420630859 950.1920
0674 1420634765 950.6232
0675 1420638671 950.7601
0676 1420642578 950.3521
0677 1420646484 952.1056
0678 1420650390 953.0532
0679 1420654296 949.9907
0680 1420658203 944.0659
0681 1420662109 945.4827
0682 1420666015 948.5652
0683 1420669921 945.2568
0684 1420673828 948.9272
0685 1420677734 949.7757
0686 1420681640 948.2242
0687 1420685546 949.4868
0688 1420689453 946.4841
0689 1420693359 949.1180
0690 1420697265 944.3492
0691 1420701171 943.7971
0692 1420705078 947.5967
0693 1420708984 946.5532
0694 1420712890 945.1143
0695 1420716796 946.1406
0696 1420720703 946.0950
0697 1420724609 944.7659
0698 1420728515 945.5125
0699 1420732421 940.9611
0700 1420736328 942.0389
0701 1420740234 944.4479
0702 1420744140 940.7650
0703 1420748046 944.3247
0704 1420751953 938.7478
0705 1420755859 938.3149
0706 1420759765 940.6006
0707 1420763671 940.4931
0708 1420767578 936.1188
0709 1420771484 940.4499
0710 1420775390 934.4354
0711 1420779296 936.1564
0712 1420783203 937.1731
0713 1420787109 938.0396
0714 1420791015 937.2715
0715 1420794921 934.7390
0716 1420798828 932.7731
0717 1420802734 934.8295
0718 1420806640 935.0970
0719 1420810546 936.6571
0720 1420814453 933.4014
0721 1420818359 935.1164
0722 1420822265 934.2150
0723 1420826171 933.3381
0724 1420830078 930.3325
0725 1420833984 932.7955
0726 1420837890 932.7311
0727 1420841796 932.4717
0728 1420845703 932.0021
0729 1420849609 933.7753
0730 1420853515 931.0641
0731 1420857421 929.3075
0732 1420861328 929.5696
0733 1420865234 932.5262
0734 1420869140 931.7394
0735 1420873046 932.6171
0736 1420876953 928.6510
0737 1420880859 931.2952
0738 1420884765 926.7952
0739 1420888671 929.3702
0740 1420892578 932.7742
