# File: 20-11-28T181329.hot
# NOTEA     = RSP1A+GPIOLabs Pi #1 On Horn
# NOTEB     = Sdrplay 8 MHz Test
# OBSERVER  = Science Aficionado
# DEVICE    = SDRPlay RSP1A
# DATADIR   = ../data/
# SITE      = RSP1A+GPIOLabs Pi #1 On Horn
# CITY      = Green Bank
# REGION    = West Virginia
# COUNTRY   = US
# TELTYPE   = Bubble Wrap  Horn
# FRAME     = TOPO
# GAIN1     = 0.0
# GAIN2     = 12.0
# GAIN3     = 12.0
# GAIN4     = 0.0
# Count     = 360000
# CenterFreq= 1422000000.0
# Bandwidth = 8000000.0
# Duration  = 157.130513
# DeltaX    = 5859.375
# TSYS      = 200.0
# TRX       = 100.0
# TRMS      = 2.0
# TINT      = 1.0
# KPERC     = 100.0
# GAINFACT  = 1.0
# BUNIT     = Counts
# NCHAN     = 2048
# NSPEC     = 1
# NTIME     = 0
# NSAMPLES  = 0
# EPEAK     = 4.10875183718
# ERMS      = 0.995973393526
# EMJD      = 58568.808999981004 
# REFCHAN   = 1024.0
# REFSAMPL  = 256.0
# NAVE      = 600
# NMEDIAN   = 1024
# Fft_rate  = 5000
# UTC       = 2020-11-28 18:13:29.201890
# SECONDS   =       0.0000000000 
# LST       = 17:26:31.810
# AZ        = 180.0
# EL        = -40.0
# TELLON    = -79:50:22.920
# TELLAT    = +38:25:59.160
# RA        = 05:57:29.830
# DEC       = -88:27:11.300
# GALLON    = 301:14:11.00
# GALLAT    = -27:28:43.60
# ALT_SUN   = +28:09:23.1
# AZ_SUN    = +197:25:23.6
# ETAA      = 0.8
# ETAB      = 0.99
# POLANGLE  = 0.0
# TELSIZEAM = 1.0
# TELSIZEBM = 1.0
# AST_VERS  = 05.01
0000 1418001953 0.8416
0001 1418005859 0.8445
0002 1418009765 0.8464
0003 1418013671 0.8455
0004 1418017578 0.8482
0005 1418021484 0.8504
0006 1418025390 0.8530
0007 1418029296 0.8563
0008 1418033203 0.8590
0009 1418037109 0.8621
0010 1418041015 0.8640
0011 1418044921 0.8665
0012 1418048828 0.8650
0013 1418052734 0.8662
0014 1418056640 0.8674
0015 1418060546 0.8702
0016 1418064453 0.8707
0017 1418068359 0.8744
0018 1418072265 0.8707
0019 1418076171 0.8696
0020 1418080078 0.8658
0021 1418083984 0.8630
0022 1418087890 0.8595
0023 1418091796 0.8524
0024 1418095703 0.8489
0025 1418099609 0.8379
0026 1418103515 0.8262
0027 1418107421 0.8160
0028 1418111328 0.8012
0029 1418115234 0.7897
0030 1418119140 0.7678
0031 1418123046 0.7492
0032 1418126953 0.7240
0033 1418130859 0.7008
0034 1418134765 0.6736
0035 1418138671 0.6470
0036 1418142578 0.6114
0037 1418146484 0.5800
0038 1418150390 0.5450
0039 1418154296 0.5060
0040 1418158203 0.4637
0041 1418162109 0.4235
0042 1418166015 0.3825
0043 1418169921 0.3383
0044 1418173828 0.2958
0045 1418177734 0.2526
0046 1418181640 0.2107
0047 1418185546 0.1708
0048 1418189453 0.1340
0049 1418193359 0.1000
0050 1418197265 0.0721
0051 1418201171 0.0508
0052 1418205078 0.0370
0053 1418208984 0.0331
0054 1418212890 0.0405
0055 1418216796 0.0614
0056 1418220703 0.0986
0057 1418224609 0.1541
0058 1418228515 0.2298
0059 1418232421 0.3305
0060 1418236328 0.4587
0061 1418240234 0.6159
0062 1418244140 0.8114
0063 1418248046 1.0383
0064 1418251953 1.3192
0065 1418255859 1.6385
0066 1418259765 2.0218
0067 1418263671 2.4450
0068 1418267578 2.9332
0069 1418271484 3.5056
0070 1418275390 4.1119
0071 1418279296 4.8464
0072 1418283203 5.6539
0073 1418287109 6.5643
0074 1418291015 7.5426
0075 1418294921 8.6512
0076 1418298828 9.8503
0077 1418302734 11.2378
0078 1418306640 12.6992
0079 1418310546 14.2956
0080 1418314453 16.0550
0081 1418318359 18.0250
0082 1418322265 20.0155
0083 1418326171 22.4393
0084 1418330078 24.7853
0085 1418333984 27.4224
0086 1418337890 30.4256
0087 1418341796 33.3923
0088 1418345703 36.5982
0089 1418349609 40.2387
0090 1418353515 43.9087
0091 1418357421 47.9063
0092 1418361328 52.2312
0093 1418365234 56.8764
0094 1418369140 61.5256
0095 1418373046 66.4577
0096 1418376953 71.9887
0097 1418380859 77.7529
0098 1418384765 83.8270
0099 1418388671 89.9812
0100 1418392578 97.0437
0101 1418396484 103.4934
0102 1418400390 110.9692
0103 1418404296 118.4958
0104 1418408203 126.4107
0105 1418412109 135.0498
0106 1418416015 143.8468
0107 1418419921 152.5210
0108 1418423828 162.2633
0109 1418427734 172.3909
0110 1418431640 181.3602
0111 1418435546 191.1676
0112 1418439453 203.5641
0113 1418443359 215.3756
0114 1418447265 225.5717
0115 1418451171 238.3096
0116 1418455078 250.7807
0117 1418458984 261.4455
0118 1418462890 275.6401
0119 1418466796 287.0835
0120 1418470703 301.8262
0121 1418474609 314.9922
0122 1418478515 329.6716
0123 1418482421 342.8545
0124 1418486328 358.0239
0125 1418490234 373.0077
0126 1418494140 388.0778
0127 1418498046 404.3185
0128 1418501953 418.4818
0129 1418505859 434.9884
0130 1418509765 450.1902
0131 1418513671 466.4290
0132 1418517578 483.5243
0133 1418521484 498.4447
0134 1418525390 515.9628
0135 1418529296 533.1689
0136 1418533203 547.7703
0137 1418537109 564.3092
0138 1418541015 580.6218
0139 1418544921 597.6768
0140 1418548828 615.0116
0141 1418552734 632.4536
0142 1418556640 648.5925
0143 1418560546 665.5386
0144 1418564453 679.3367
0145 1418568359 698.2970
0146 1418572265 711.8677
0147 1418576171 727.1163
0148 1418580078 744.7677
0149 1418583984 763.1339
0150 1418587890 779.0497
0151 1418591796 792.7251
0152 1418595703 808.2219
0153 1418599609 822.1753
0154 1418603515 835.2760
0155 1418607421 852.4429
0156 1418611328 866.4643
0157 1418615234 880.0147
0158 1418619140 890.5757
0159 1418623046 908.0230
0160 1418626953 917.1600
0161 1418630859 927.7527
0162 1418634765 943.8271
0163 1418638671 953.8397
0164 1418642578 964.3574
0165 1418646484 977.5273
0166 1418650390 989.9889
0167 1418654296 999.6627
0168 1418658203 1011.5760
0169 1418662109 1018.5058
0170 1418666015 1025.9091
0171 1418669921 1034.1915
0172 1418673828 1050.0708
0173 1418677734 1053.4637
0174 1418681640 1063.2096
0175 1418685546 1071.6573
0176 1418689453 1072.9709
0177 1418693359 1077.8246
0178 1418697265 1085.4720
0179 1418701171 1090.9459
0180 1418705078 1098.0398
0181 1418708984 1105.4120
0182 1418712890 1109.1791
0183 1418716796 1108.5446
0184 1418720703 1111.4841
0185 1418724609 1121.4861
0186 1418728515 1123.1688
0187 1418732421 1124.0588
0188 1418736328 1127.6895
0189 1418740234 1130.7242
0190 1418744140 1134.4534
0191 1418748046 1133.7576
0192 1418751953 1133.2491
0193 1418755859 1131.7274
0194 1418759765 1132.2030
0195 1418763671 1137.4534
0196 1418767578 1138.9556
0197 1418771484 1129.7417
0198 1418775390 1130.1488
0199 1418779296 1134.2275
0200 1418783203 1131.7500
0201 1418787109 1129.5278
0202 1418791015 1128.7677
0203 1418794921 1130.4596
0204 1418798828 1122.3075
0205 1418802734 1124.8228
0206 1418806640 1124.6046
0207 1418810546 1118.3882
0208 1418814453 1115.1174
0209 1418818359 1114.4730
0210 1418822265 1108.3701
0211 1418826171 1106.1249
0212 1418830078 1105.4515
0213 1418833984 1098.3807
0214 1418837890 1098.1487
0215 1418841796 1094.1282
0216 1418845703 1090.7317
0217 1418849609 1090.3480
0218 1418853515 1089.9481
0219 1418857421 1082.9324
0220 1418861328 1082.4011
0221 1418865234 1075.0881
0222 1418869140 1073.4170
0223 1418873046 1068.6793
0224 1418876953 1068.8906
0225 1418880859 1061.0864
0226 1418884765 1058.5366
0227 1418888671 1057.9786
0228 1418892578 1056.5656
0229 1418896484 1049.3059
0230 1418900390 1045.7786
0231 1418904296 1047.7218
0232 1418908203 1042.2941
0233 1418912109 1042.0648
0234 1418916015 1037.9122
0235 1418919921 1034.1080
0236 1418923828 1030.8701
0237 1418927734 1030.8623
0238 1418931640 1025.1813
0239 1418935546 1024.9532
0240 1418939453 1020.8281
0241 1418943359 1017.8049
0242 1418947265 1015.0507
0243 1418951171 1013.3888
0244 1418955078 1015.8607
0245 1418958984 1011.5371
0246 1418962890 1010.7758
0247 1418966796 1006.8516
0248 1418970703 1004.7600
0249 1418974609 1009.2019
0250 1418978515 1001.7609
0251 1418982421 1000.1780
0252 1418986328 1004.6359
0253 1418990234 999.8456
0254 1418994140 998.5786
0255 1418998046 997.8378
0256 1419001953 999.1086
0257 1419005859 998.1692
0258 1419009765 994.8221
0259 1419013671 997.3873
0260 1419017578 997.1904
0261 1419021484 995.6097
0262 1419025390 999.2110
0263 1419029296 996.3239
0264 1419033203 993.4646
0265 1419037109 996.9882
0266 1419041015 994.6051
0267 1419044921 996.6013
0268 1419048828 996.6079
0269 1419052734 992.5697
0270 1419056640 999.0745
0271 1419060546 996.8445
0272 1419064453 995.9808
0273 1419068359 1001.8667
0274 1419072265 1000.3992
0275 1419076171 1002.5833
0276 1419080078 999.8994
0277 1419083984 1002.5814
0278 1419087890 1003.9392
0279 1419091796 1006.7594
0280 1419095703 1007.8696
0281 1419099609 1010.6080
0282 1419103515 1010.5746
0283 1419107421 1009.8996
0284 1419111328 1008.4524
0285 1419115234 1008.4346
0286 1419119140 1013.4072
0287 1419123046 1015.2706
0288 1419126953 1015.0115
0289 1419130859 1019.4785
0290 1419134765 1020.7001
0291 1419138671 1021.8410
0292 1419142578 1020.9691
0293 1419146484 1020.7401
0294 1419150390 1023.7311
0295 1419154296 1022.7310
0296 1419158203 1028.3909
0297 1419162109 1025.2153
0298 1419166015 1031.3052
0299 1419169921 1029.7861
0300 1419173828 1029.1681
0301 1419177734 1033.4000
0302 1419181640 1038.6394
0303 1419185546 1038.5345
0304 1419189453 1041.9769
0305 1419193359 1040.0424
0306 1419197265 1040.2740
0307 1419201171 1043.2134
0308 1419205078 1041.9292
0309 1419208984 1043.4037
0310 1419212890 1043.0109
0311 1419216796 1044.0532
0312 1419220703 1048.9138
0313 1419224609 1047.6233
0314 1419228515 1053.7675
0315 1419232421 1051.8303
0316 1419236328 1053.7184
0317 1419240234 1051.8513
0318 1419244140 1053.5989
0319 1419248046 1058.6409
0320 1419251953 1055.9109
0321 1419255859 1057.2357
0322 1419259765 1059.3368
0323 1419263671 1056.4318
0324 1419267578 1058.7043
0325 1419271484 1058.8239
0326 1419275390 1062.7224
0327 1419279296 1063.1389
0328 1419283203 1058.3647
0329 1419287109 1067.1294
0330 1419291015 1062.2920
0331 1419294921 1062.6243
0332 1419298828 1067.3981
0333 1419302734 1063.2123
0334 1419306640 1068.5720
0335 1419310546 1065.0797
0336 1419314453 1067.7172
0337 1419318359 1068.5894
0338 1419322265 1071.7704
0339 1419326171 1071.3464
0340 1419330078 1068.5482
0341 1419333984 1072.9799
0342 1419337890 1070.9132
0343 1419341796 1068.9747
0344 1419345703 1072.9510
0345 1419349609 1074.5780
0346 1419353515 1068.9788
0347 1419357421 1069.4087
0348 1419361328 1071.4155
0349 1419365234 1071.5275
0350 1419369140 1077.4203
0351 1419373046 1071.5856
0352 1419376953 1072.1224
0353 1419380859 1072.3406
0354 1419384765 1068.0902
0355 1419388671 1072.2089
0356 1419392578 1076.6460
0357 1419396484 1074.5265
0358 1419400390 1075.1267
0359 1419404296 1073.0947
0360 1419408203 1069.8552
0361 1419412109 1072.8696
0362 1419416015 1073.2478
0363 1419419921 1071.1633
0364 1419423828 1071.7786
0365 1419427734 1075.9962
0366 1419431640 1070.4985
0367 1419435546 1071.8192
0368 1419439453 1073.8975
0369 1419443359 1077.2438
0370 1419447265 1077.4200
0371 1419451171 1074.9253
0372 1419455078 1076.9622
0373 1419458984 1076.4237
0374 1419462890 1076.0770
0375 1419466796 1076.4901
0376 1419470703 1077.9105
0377 1419474609 1075.8839
0378 1419478515 1075.7588
0379 1419482421 1075.6533
0380 1419486328 1079.0996
0381 1419490234 1078.8416
0382 1419494140 1074.7791
0383 1419498046 1070.8198
0384 1419501953 1075.2542
0385 1419505859 1075.0819
0386 1419509765 1075.6641
0387 1419513671 1074.6987
0388 1419517578 1079.5530
0389 1419521484 1077.4049
0390 1419525390 1077.1545
0391 1419529296 1077.7592
0392 1419533203 1079.3137
0393 1419537109 1078.0876
0394 1419541015 1077.2076
0395 1419544921 1078.5702
0396 1419548828 1079.1039
0397 1419552734 1078.5201
0398 1419556640 1077.1906
0399 1419560546 1079.0504
0400 1419564453 1076.7634
0401 1419568359 1079.4417
0402 1419572265 1081.3297
0403 1419576171 1079.2367
0404 1419580078 1076.9108
0405 1419583984 1080.8552
0406 1419587890 1081.5518
0407 1419591796 1081.0383
0408 1419595703 1081.1478
0409 1419599609 1080.1074
0410 1419603515 1080.9874
0411 1419607421 1079.2611
0412 1419611328 1077.6880
0413 1419615234 1076.0243
0414 1419619140 1078.9050
0415 1419623046 1077.3044
0416 1419626953 1080.5363
0417 1419630859 1077.7736
0418 1419634765 1078.1353
0419 1419638671 1074.8149
0420 1419642578 1077.8682
0421 1419646484 1074.0709
0422 1419650390 1077.1224
0423 1419654296 1076.4708
0424 1419658203 1075.3679
0425 1419662109 1078.4216
0426 1419666015 1073.4623
0427 1419669921 1069.5431
0428 1419673828 1076.8589
0429 1419677734 1077.5471
0430 1419681640 1071.3234
0431 1419685546 1069.9980
0432 1419689453 1063.8367
0433 1419693359 1067.9355
0434 1419697265 1072.6565
0435 1419701171 1069.9421
0436 1419705078 1071.1989
0437 1419708984 1068.0974
0438 1419712890 1067.0597
0439 1419716796 1062.4994
0440 1419720703 1063.0229
0441 1419724609 1060.1041
0442 1419728515 1061.3344
0443 1419732421 1058.3038
0444 1419736328 1060.6630
0445 1419740234 1057.6969
0446 1419744140 1056.7687
0447 1419748046 1062.8557
0448 1419751953 1058.9332
0449 1419755859 1055.8596
0450 1419759765 1056.4778
0451 1419763671 1054.0990
0452 1419767578 1052.0931
0453 1419771484 1048.9083
0454 1419775390 1050.3201
0455 1419779296 1048.6882
0456 1419783203 1047.6406
0457 1419787109 1047.2864
0458 1419791015 1046.9608
0459 1419794921 1043.3274
0460 1419798828 1046.8287
0461 1419802734 1045.1257
0462 1419806640 1040.3129
0463 1419810546 1042.3644
0464 1419814453 1041.6125
0465 1419818359 1042.2076
0466 1419822265 1040.3004
0467 1419826171 1038.5105
0468 1419830078 1035.5695
0469 1419833984 1033.2438
0470 1419837890 1034.0496
0471 1419841796 1031.3372
0472 1419845703 1032.4608
0473 1419849609 1037.2241
0474 1419853515 1030.2351
0475 1419857421 1032.2229
0476 1419861328 1030.0542
0477 1419865234 1028.3674
0478 1419869140 1031.4364
0479 1419873046 1030.9408
0480 1419876953 1026.3934
0481 1419880859 1025.6572
0482 1419884765 1025.4454
0483 1419888671 1029.3842
0484 1419892578 1024.6875
0485 1419896484 1023.4760
0486 1419900390 1026.0768
0487 1419904296 1026.0100
0488 1419908203 1020.0726
0489 1419912109 1023.3289
0490 1419916015 1023.1747
0491 1419919921 1020.9743
0492 1419923828 1020.9713
0493 1419927734 1022.2851
0494 1419931640 1023.2449
0495 1419935546 1017.8758
0496 1419939453 1018.9184
0497 1419943359 1021.5848
0498 1419947265 1018.2737
0499 1419951171 1019.4143
0500 1419955078 1014.8732
0501 1419958984 1016.8053
0502 1419962890 1020.4501
0503 1419966796 1018.2443
0504 1419970703 1015.3109
0505 1419974609 1021.0290
0506 1419978515 1018.6639
0507 1419982421 1015.5337
0508 1419986328 1016.2338
0509 1419990234 1015.7935
0510 1419994140 1016.0640
0511 1419998046 1016.7795
0512 1420001953 1020.7535
0513 1420005859 1019.7277
0514 1420009765 1017.9061
0515 1420013671 1018.3167
0516 1420017578 1020.5609
0517 1420021484 1018.8250
0518 1420025390 1018.5782
0519 1420029296 1018.2939
0520 1420033203 1017.5016
0521 1420037109 1014.9576
0522 1420041015 1014.8994
0523 1420044921 1018.1628
0524 1420048828 1017.9070
0525 1420052734 1018.4840
0526 1420056640 1016.6025
0527 1420060546 1015.6494
0528 1420064453 1018.7166
0529 1420068359 1020.0624
0530 1420072265 1019.7687
0531 1420076171 1019.0254
0532 1420080078 1018.0090
0533 1420083984 1021.1633
0534 1420087890 1018.7661
0535 1420091796 1021.9620
0536 1420095703 1017.7346
0537 1420099609 1016.6007
0538 1420103515 1017.8080
0539 1420107421 1018.4511
0540 1420111328 1019.7977
0541 1420115234 1023.2481
0542 1420119140 1020.5471
0543 1420123046 1014.6714
0544 1420126953 1022.0603
0545 1420130859 1020.8849
0546 1420134765 1023.1819
0547 1420138671 1019.2748
0548 1420142578 1019.6597
0549 1420146484 1018.7859
0550 1420150390 1019.2797
0551 1420154296 1017.7573
0552 1420158203 1021.9637
0553 1420162109 1020.0195
0554 1420166015 1020.5516
0555 1420169921 1018.2413
0556 1420173828 1018.5325
0557 1420177734 1021.9862
0558 1420181640 1018.1986
0559 1420185546 1015.6417
0560 1420189453 1019.8546
0561 1420193359 1016.0093
0562 1420197265 1015.7664
0563 1420201171 1017.8952
0564 1420205078 1016.0222
0565 1420208984 1015.8399
0566 1420212890 1017.2052
0567 1420216796 1016.5258
0568 1420220703 1012.6292
0569 1420224609 1015.6569
0570 1420228515 1013.0175
0571 1420232421 1015.0875
0572 1420236328 1011.8696
0573 1420240234 1013.1554
0574 1420244140 1011.8350
0575 1420248046 1008.5633
0576 1420251953 1007.5463
0577 1420255859 1008.9677
0578 1420259765 1008.1310
0579 1420263671 1007.4765
0580 1420267578 1009.6005
0581 1420271484 1007.2538
0582 1420275390 1012.0258
0583 1420279296 1007.4810
0584 1420283203 1007.2311
0585 1420287109 1006.1826
0586 1420291015 1007.0443
0587 1420294921 1005.3790
0588 1420298828 1002.5378
0589 1420302734 1003.2201
0590 1420306640 1009.0046
0591 1420310546 1004.8967
0592 1420314453 1001.8480
0593 1420318359 998.4836
0594 1420322265 1000.9470
0595 1420326171 1001.3963
0596 1420330078 1004.0308
0597 1420333984 1001.9655
0598 1420337890 1000.8461
0599 1420341796 1001.8962
0600 1420345703 999.6951
0601 1420349609 998.5331
0602 1420353515 1000.5444
0603 1420357421 996.8584
0604 1420361328 996.2006
0605 1420365234 993.4548
0606 1420369140 997.6226
0607 1420373046 998.3314
0608 1420376953 1000.7998
0609 1420380859 995.6429
0610 1420384765 994.6492
0611 1420388671 994.9661
0612 1420392578 994.1075
0613 1420396484 995.5141
0614 1420400390 991.4091
0615 1420404296 992.3480
0616 1420408203 992.3931
0617 1420412109 991.4037
0618 1420416015 991.5858
0619 1420419921 987.2676
0620 1420423828 986.9878
0621 1420427734 986.6586
0622 1420431640 989.3248
0623 1420435546 987.0309
0624 1420439453 986.4454
0625 1420443359 988.9573
0626 1420447265 984.5581
0627 1420451171 983.9368
0628 1420455078 984.4003
0629 1420458984 982.8187
0630 1420462890 982.9678
0631 1420466796 984.7748
0632 1420470703 981.7543
0633 1420474609 983.7529
0634 1420478515 986.3456
0635 1420482421 985.6578
0636 1420486328 978.5446
0637 1420490234 981.9366
0638 1420494140 981.2148
0639 1420498046 985.2526
0640 1420501953 980.6312
0641 1420505859 981.6870
0642 1420509765 983.9596
0643 1420513671 985.7062
0644 1420517578 980.1838
0645 1420521484 985.4750
0646 1420525390 983.5239
0647 1420529296 984.6574
0648 1420533203 985.9472
0649 1420537109 981.9489
0650 1420541015 984.7952
0651 1420544921 983.8632
0652 1420548828 985.6277
0653 1420552734 990.2527
0654 1420556640 985.2600
0655 1420560546 983.9546
0656 1420564453 980.1926
0657 1420568359 988.4872
0658 1420572265 981.2119
0659 1420576171 986.3520
0660 1420580078 979.8636
0661 1420583984 984.9193
0662 1420587890 987.4064
0663 1420591796 981.2739
0664 1420595703 984.6103
0665 1420599609 981.8180
0666 1420603515 982.9357
0667 1420607421 981.9631
0668 1420611328 984.2847
0669 1420615234 983.5142
0670 1420619140 982.6509
0671 1420623046 983.1400
0672 1420626953 984.6831
0673 1420630859 986.2598
0674 1420634765 983.4472
0675 1420638671 983.5351
0676 1420642578 985.8005
0677 1420646484 980.2299
0678 1420650390 981.2533
0679 1420654296 981.1324
0680 1420658203 981.9062
0681 1420662109 983.3766
0682 1420666015 980.8798
0683 1420669921 979.8657
0684 1420673828 984.5322
0685 1420677734 987.2493
0686 1420681640 982.4471
0687 1420685546 980.8607
0688 1420689453 978.6940
0689 1420693359 978.9433
0690 1420697265 978.4269
0691 1420701171 978.7349
0692 1420705078 976.5039
0693 1420708984 977.2832
0694 1420712890 977.9252
0695 1420716796 978.4092
0696 1420720703 976.0065
0697 1420724609 978.5790
0698 1420728515 980.2899
0699 1420732421 975.6971
0700 1420736328 975.0679
0701 1420740234 977.9175
0702 1420744140 976.3706
0703 1420748046 976.9540
0704 1420751953 975.8523
0705 1420755859 973.6871
0706 1420759765 973.7818
0707 1420763671 974.7391
0708 1420767578 971.8794
0709 1420771484 969.7505
0710 1420775390 974.5355
0711 1420779296 971.4500
0712 1420783203 971.2954
0713 1420787109 970.5551
0714 1420791015 970.1550
0715 1420794921 969.7829
0716 1420798828 967.4905
0717 1420802734 967.1311
0718 1420806640 970.8178
0719 1420810546 964.4658
0720 1420814453 963.2299
0721 1420818359 964.8271
0722 1420822265 964.5199
0723 1420826171 967.3884
0724 1420830078 964.0073
0725 1420833984 964.5945
0726 1420837890 966.7839
0727 1420841796 962.1454
0728 1420845703 963.0843
0729 1420849609 964.7161
0730 1420853515 966.9368
0731 1420857421 963.9738
0732 1420861328 963.9208
0733 1420865234 963.7429
