# File: 20-11-28T181606.hot
# NOTEA     = RSP1A+GPIOLabs Pi #1 On Horn
# NOTEB     = Sdrplay 8 MHz Test
# OBSERVER  = Science Aficionado
# DEVICE    = SDRPlay RSP1A
# DATADIR   = ../data/
# SITE      = RSP1A+GPIOLabs Pi #1 On Horn
# CITY      = Green Bank
# REGION    = West Virginia
# COUNTRY   = US
# TELTYPE   = Bubble Wrap  Horn
# FRAME     = TOPO
# GAIN1     = 0.0
# GAIN2     = 12.0
# GAIN3     = 12.0
# GAIN4     = 0.0
# Count     = 360000
# CenterFreq= 1422000000.0
# Bandwidth = 8000000.0
# Duration  = 157.285447
# DeltaX    = 5859.375
# TSYS      = 200.0
# TRX       = 100.0
# TRMS      = 2.0
# TINT      = 1.0
# KPERC     = 100.0
# GAINFACT  = 1.0
# BUNIT     = Counts
# NCHAN     = 2048
# NSPEC     = 1
# NTIME     = 0
# NSAMPLES  = 0
# EPEAK     = 4.10875183718
# ERMS      = 0.995973393526
# EMJD      = 58568.808999981004 
# REFCHAN   = 1024.0
# REFSAMPL  = 256.0
# NAVE      = 600
# NMEDIAN   = 1024
# Fft_rate  = 5000
# UTC       = 2020-11-28 18:16:06.409870
# SECONDS   =       0.0000000000 
# LST       = 17:29:09.450
# AZ        = 180.0
# EL        = -40.0
# TELLON    = -79:50:22.920
# TELLAT    = +38:25:59.160
# RA        = 06:00:07.710
# DEC       = -88:27:02.000
# GALLON    = 301:13:45.30
# GALLAT    = -27:27:43.10
# ALT_SUN   = +27:59:59.5
# AZ_SUN    = +198:05:25.9
# ETAA      = 0.8
# ETAB      = 0.99
# POLANGLE  = 0.0
# TELSIZEAM = 1.0
# TELSIZEBM = 1.0
# AST_VERS  = 05.01
0000 1418001953 0.8435
0001 1418005859 0.8435
0002 1418009765 0.8450
0003 1418013671 0.8443
0004 1418017578 0.8479
0005 1418021484 0.8515
0006 1418025390 0.8535
0007 1418029296 0.8511
0008 1418033203 0.8565
0009 1418037109 0.8579
0010 1418041015 0.8589
0011 1418044921 0.8643
0012 1418048828 0.8625
0013 1418052734 0.8674
0014 1418056640 0.8673
0015 1418060546 0.8724
0016 1418064453 0.8704
0017 1418068359 0.8705
0018 1418072265 0.8692
0019 1418076171 0.8687
0020 1418080078 0.8670
0021 1418083984 0.8648
0022 1418087890 0.8602
0023 1418091796 0.8532
0024 1418095703 0.8453
0025 1418099609 0.8393
0026 1418103515 0.8266
0027 1418107421 0.8161
0028 1418111328 0.8005
0029 1418115234 0.7889
0030 1418119140 0.7705
0031 1418123046 0.7504
0032 1418126953 0.7224
0033 1418130859 0.6976
0034 1418134765 0.6738
0035 1418138671 0.6447
0036 1418142578 0.6143
0037 1418146484 0.5782
0038 1418150390 0.5416
0039 1418154296 0.5058
0040 1418158203 0.4663
0041 1418162109 0.4253
0042 1418166015 0.3819
0043 1418169921 0.3385
0044 1418173828 0.2963
0045 1418177734 0.2532
0046 1418181640 0.2107
0047 1418185546 0.1708
0048 1418189453 0.1334
0049 1418193359 0.1003
0050 1418197265 0.0721
0051 1418201171 0.0506
0052 1418205078 0.0369
0053 1418208984 0.0329
0054 1418212890 0.0404
0055 1418216796 0.0616
0056 1418220703 0.0986
0057 1418224609 0.1541
0058 1418228515 0.2312
0059 1418232421 0.3308
0060 1418236328 0.4595
0061 1418240234 0.6184
0062 1418244140 0.8146
0063 1418248046 1.0416
0064 1418251953 1.3114
0065 1418255859 1.6387
0066 1418259765 2.0100
0067 1418263671 2.4408
0068 1418267578 2.9345
0069 1418271484 3.5071
0070 1418275390 4.1266
0071 1418279296 4.8619
0072 1418283203 5.6478
0073 1418287109 6.5617
0074 1418291015 7.5389
0075 1418294921 8.6189
0076 1418298828 9.8670
0077 1418302734 11.2082
0078 1418306640 12.7014
0079 1418310546 14.2961
0080 1418314453 16.0972
0081 1418318359 18.0377
0082 1418322265 20.0668
0083 1418326171 22.3683
0084 1418330078 24.8524
0085 1418333984 27.4602
0086 1418337890 30.4638
0087 1418341796 33.4917
0088 1418345703 36.6667
0089 1418349609 40.2456
0090 1418353515 43.8666
0091 1418357421 47.9601
0092 1418361328 52.1495
0093 1418365234 56.8346
0094 1418369140 61.8900
0095 1418373046 66.9307
0096 1418376953 72.2152
0097 1418380859 77.8253
0098 1418384765 84.0361
0099 1418388671 90.4791
0100 1418392578 96.5483
0101 1418396484 103.5580
0102 1418400390 110.8377
0103 1418404296 118.8055
0104 1418408203 126.8176
0105 1418412109 134.4558
0106 1418416015 143.6008
0107 1418419921 152.7646
0108 1418423828 161.7088
0109 1418427734 171.6836
0110 1418431640 182.0815
0111 1418435546 192.5776
0112 1418439453 203.0613
0113 1418443359 214.2752
0114 1418447265 224.4545
0115 1418451171 237.0689
0116 1418455078 249.9145
0117 1418458984 262.2949
0118 1418462890 274.9802
0119 1418466796 287.9837
0120 1418470703 302.3752
0121 1418474609 314.9585
0122 1418478515 329.9486
0123 1418482421 344.8808
0124 1418486328 358.1884
0125 1418490234 372.2621
0126 1418494140 387.7478
0127 1418498046 402.7630
0128 1418501953 417.1949
0129 1418505859 432.6528
0130 1418509765 450.0415
0131 1418513671 465.7003
0132 1418517578 481.6063
0133 1418521484 499.8894
0134 1418525390 516.5766
0135 1418529296 533.1519
0136 1418533203 547.5810
0137 1418537109 564.9414
0138 1418541015 580.4755
0139 1418544921 595.3405
0140 1418548828 612.5568
0141 1418552734 629.1844
0142 1418556640 646.7878
0143 1418560546 664.2548
0144 1418564453 679.5529
0145 1418568359 696.7441
0146 1418572265 713.8533
0147 1418576171 728.3097
0148 1418580078 744.4025
0149 1418583984 763.7277
0150 1418587890 775.0163
0151 1418591796 792.4904
0152 1418595703 807.9512
0153 1418599609 821.0715
0154 1418603515 834.1943
0155 1418607421 850.8917
0156 1418611328 864.2951
0157 1418615234 879.0386
0158 1418619140 897.3065
0159 1418623046 904.1608
0160 1418626953 915.4033
0161 1418630859 931.9954
0162 1418634765 944.8364
0163 1418638671 957.6248
0164 1418642578 969.5944
0165 1418646484 973.6473
0166 1418650390 989.1920
0167 1418654296 999.8040
0168 1418658203 1010.9561
0169 1418662109 1020.1104
0170 1418666015 1031.2760
0171 1418669921 1034.0406
0172 1418673828 1045.5946
0173 1418677734 1051.4257
0174 1418681640 1057.9335
0175 1418685546 1067.7935
0176 1418689453 1078.2212
0177 1418693359 1081.2351
0178 1418697265 1085.7153
0179 1418701171 1094.0338
0180 1418705078 1096.6401
0181 1418708984 1100.0734
0182 1418712890 1108.1858
0183 1418716796 1109.7706
0184 1418720703 1113.2887
0185 1418724609 1116.4683
0186 1418728515 1123.6787
0187 1418732421 1129.9144
0188 1418736328 1125.4274
0189 1418740234 1129.9674
0190 1418744140 1128.1387
0191 1418748046 1129.5673
0192 1418751953 1126.5015
0193 1418755859 1131.1501
0194 1418759765 1129.6429
0195 1418763671 1131.9789
0196 1418767578 1129.8986
0197 1418771484 1136.1094
0198 1418775390 1125.9807
0199 1418779296 1126.8962
0200 1418783203 1124.4467
0201 1418787109 1126.6180
0202 1418791015 1129.1842
0203 1418794921 1123.7209
0204 1418798828 1124.2469
0205 1418802734 1121.5660
0206 1418806640 1118.5251
0207 1418810546 1116.4456
0208 1418814453 1117.0476
0209 1418818359 1110.8190
0210 1418822265 1112.7278
0211 1418826171 1109.3384
0212 1418830078 1106.2966
0213 1418833984 1102.8893
0214 1418837890 1094.0554
0215 1418841796 1091.8608
0216 1418845703 1095.8546
0217 1418849609 1093.2632
0218 1418853515 1087.8903
0219 1418857421 1083.8156
0220 1418861328 1080.0251
0221 1418865234 1077.0631
0222 1418869140 1072.9052
0223 1418873046 1072.6077
0224 1418876953 1068.1760
0225 1418880859 1061.2731
0226 1418884765 1061.2753
0227 1418888671 1059.8492
0228 1418892578 1055.1738
0229 1418896484 1048.1112
0230 1418900390 1050.2013
0231 1418904296 1045.4784
0232 1418908203 1042.0566
0233 1418912109 1036.8055
0234 1418916015 1034.7985
0235 1418919921 1032.6904
0236 1418923828 1030.9271
0237 1418927734 1026.7756
0238 1418931640 1025.7711
0239 1418935546 1019.0474
0240 1418939453 1023.4525
0241 1418943359 1020.6489
0242 1418947265 1018.7286
0243 1418951171 1013.8098
0244 1418955078 1012.1544
0245 1418958984 1010.8074
0246 1418962890 1009.5417
0247 1418966796 1006.6630
0248 1418970703 1007.8776
0249 1418974609 1006.3791
0250 1418978515 1003.6122
0251 1418982421 1004.3671
0252 1418986328 1006.9402
0253 1418990234 1004.0586
0254 1418994140 997.7829
0255 1418998046 999.7896
0256 1419001953 1002.2547
0257 1419005859 996.4232
0258 1419009765 999.2834
0259 1419013671 995.0466
0260 1419017578 996.8232
0261 1419021484 997.7870
0262 1419025390 994.8183
0263 1419029296 994.8516
0264 1419033203 995.6440
0265 1419037109 996.1265
0266 1419041015 994.7380
0267 1419044921 997.7992
0268 1419048828 994.2380
0269 1419052734 995.9692
0270 1419056640 996.4012
0271 1419060546 996.2578
0272 1419064453 998.5003
0273 1419068359 997.4554
0274 1419072265 997.8492
0275 1419076171 998.9667
0276 1419080078 998.6456
0277 1419083984 1006.0037
0278 1419087890 1002.3313
0279 1419091796 999.9626
0280 1419095703 1006.4162
0281 1419099609 1007.5455
0282 1419103515 1006.2991
0283 1419107421 1007.2133
0284 1419111328 1007.4819
0285 1419115234 1010.3672
0286 1419119140 1015.6191
0287 1419123046 1011.2075
0288 1419126953 1013.9172
0289 1419130859 1014.3470
0290 1419134765 1020.7121
0291 1419138671 1020.6854
0292 1419142578 1017.4843
0293 1419146484 1020.7658
0294 1419150390 1020.5225
0295 1419154296 1022.8599
0296 1419158203 1024.8020
0297 1419162109 1028.1152
0298 1419166015 1027.7264
0299 1419169921 1031.0664
0300 1419173828 1034.6689
0301 1419177734 1033.4445
0302 1419181640 1034.8066
0303 1419185546 1034.1039
0304 1419189453 1035.9031
0305 1419193359 1037.0343
0306 1419197265 1040.8239
0307 1419201171 1044.2819
0308 1419205078 1041.5587
0309 1419208984 1045.4624
0310 1419212890 1047.8269
0311 1419216796 1050.1705
0312 1419220703 1050.5852
0313 1419224609 1050.6570
0314 1419228515 1051.4064
0315 1419232421 1049.3358
0316 1419236328 1050.5028
0317 1419240234 1052.8248
0318 1419244140 1056.9045
0319 1419248046 1054.6664
0320 1419251953 1057.9896
0321 1419255859 1059.1005
0322 1419259765 1058.8767
0323 1419263671 1058.3110
0324 1419267578 1059.1024
0325 1419271484 1062.5355
0326 1419275390 1059.9182
0327 1419279296 1060.0663
0328 1419283203 1063.5938
0329 1419287109 1063.1814
0330 1419291015 1064.3243
0331 1419294921 1067.4160
0332 1419298828 1063.2651
0333 1419302734 1064.9012
0334 1419306640 1065.3716
0335 1419310546 1067.8522
0336 1419314453 1070.3352
0337 1419318359 1070.4723
0338 1419322265 1070.4573
0339 1419326171 1067.9346
0340 1419330078 1069.0226
0341 1419333984 1070.5723
0342 1419337890 1071.4697
0343 1419341796 1068.7091
0344 1419345703 1069.2072
0345 1419349609 1071.4520
0346 1419353515 1068.8396
0347 1419357421 1070.6610
0348 1419361328 1071.8616
0349 1419365234 1073.9905
0350 1419369140 1072.7472
0351 1419373046 1073.7483
0352 1419376953 1072.5571
0353 1419380859 1069.2787
0354 1419384765 1072.1912
0355 1419388671 1067.9581
0356 1419392578 1070.4713
0357 1419396484 1071.2256
0358 1419400390 1072.9858
0359 1419404296 1076.6841
0360 1419408203 1072.1180
0361 1419412109 1073.9528
0362 1419416015 1070.5759
0363 1419419921 1075.0497
0364 1419423828 1077.7325
0365 1419427734 1074.9097
0366 1419431640 1074.3630
0367 1419435546 1075.7822
0368 1419439453 1074.6855
0369 1419443359 1072.4006
0370 1419447265 1074.8389
0371 1419451171 1074.3035
0372 1419455078 1076.2343
0373 1419458984 1080.2803
0374 1419462890 1078.1263
0375 1419466796 1076.1661
0376 1419470703 1079.1294
0377 1419474609 1080.2960
0378 1419478515 1075.9415
0379 1419482421 1072.9767
0380 1419486328 1076.0463
0381 1419490234 1075.4940
0382 1419494140 1073.6086
0383 1419498046 1074.3977
0384 1419501953 1075.5389
0385 1419505859 1075.1085
0386 1419509765 1073.2468
0387 1419513671 1078.1481
0388 1419517578 1080.4500
0389 1419521484 1075.4879
0390 1419525390 1077.4240
0391 1419529296 1079.4968
0392 1419533203 1077.4547
0393 1419537109 1077.9633
0394 1419541015 1076.6147
0395 1419544921 1076.9105
0396 1419548828 1075.1350
0397 1419552734 1073.9235
0398 1419556640 1074.7422
0399 1419560546 1079.5419
0400 1419564453 1074.0505
0401 1419568359 1075.3954
0402 1419572265 1077.0961
0403 1419576171 1078.3401
0404 1419580078 1077.0853
0405 1419583984 1079.8160
0406 1419587890 1077.1840
0407 1419591796 1078.7101
0408 1419595703 1077.6436
0409 1419599609 1078.2296
0410 1419603515 1076.9963
0411 1419607421 1082.0298
0412 1419611328 1081.6821
0413 1419615234 1076.1423
0414 1419619140 1074.9597
0415 1419623046 1077.8862
0416 1419626953 1076.7107
0417 1419630859 1076.3621
0418 1419634765 1075.7159
0419 1419638671 1075.4415
0420 1419642578 1072.3219
0421 1419646484 1072.0485
0422 1419650390 1075.3893
0423 1419654296 1077.3850
0424 1419658203 1071.9382
0425 1419662109 1071.0909
0426 1419666015 1069.8317
0427 1419669921 1074.2262
0428 1419673828 1071.8026
0429 1419677734 1072.5326
0430 1419681640 1067.4648
0431 1419685546 1069.4946
0432 1419689453 1075.0359
0433 1419693359 1065.6819
0434 1419697265 1068.7820
0435 1419701171 1062.7041
0436 1419705078 1065.6123
0437 1419708984 1062.6346
0438 1419712890 1064.9977
0439 1419716796 1063.7926
0440 1419720703 1062.4850
0441 1419724609 1063.9075
0442 1419728515 1063.1781
0443 1419732421 1062.4769
0444 1419736328 1058.9995
0445 1419740234 1055.1567
0446 1419744140 1058.4663
0447 1419748046 1057.1650
0448 1419751953 1056.5786
0449 1419755859 1053.3036
0450 1419759765 1050.4562
0451 1419763671 1055.1511
0452 1419767578 1049.0447
0453 1419771484 1050.6118
0454 1419775390 1052.1970
0455 1419779296 1052.0817
0456 1419783203 1047.8142
0457 1419787109 1050.8236
0458 1419791015 1047.5319
0459 1419794921 1044.0280
0460 1419798828 1043.1130
0461 1419802734 1044.6434
0462 1419806640 1045.7635
0463 1419810546 1044.1288
0464 1419814453 1040.6754
0465 1419818359 1040.0287
0466 1419822265 1038.2246
0467 1419826171 1042.7637
0468 1419830078 1037.4628
0469 1419833984 1033.2501
0470 1419837890 1029.7987
0471 1419841796 1032.4613
0472 1419845703 1031.0228
0473 1419849609 1029.3300
0474 1419853515 1029.1223
0475 1419857421 1026.1639
0476 1419861328 1032.0690
0477 1419865234 1030.5095
0478 1419869140 1027.5881
0479 1419873046 1026.5679
0480 1419876953 1025.5582
0481 1419880859 1022.5886
0482 1419884765 1021.1351
0483 1419888671 1022.6973
0484 1419892578 1028.4885
0485 1419896484 1022.0190
0486 1419900390 1026.0983
0487 1419904296 1024.9974
0488 1419908203 1022.5618
0489 1419912109 1021.2408
0490 1419916015 1023.2447
0491 1419919921 1020.6562
0492 1419923828 1019.7099
0493 1419927734 1019.2352
0494 1419931640 1020.0125
0495 1419935546 1022.3266
0496 1419939453 1014.1260
0497 1419943359 1013.5622
0498 1419947265 1021.6911
0499 1419951171 1019.7247
0500 1419955078 1020.2824
0501 1419958984 1019.9915
0502 1419962890 1015.1068
0503 1419966796 1015.7890
0504 1419970703 1015.3334
0505 1419974609 1020.6194
0506 1419978515 1017.3403
0507 1419982421 1017.6217
0508 1419986328 1014.7723
0509 1419990234 1013.6271
0510 1419994140 1017.4397
0511 1419998046 1018.5670
0512 1420001953 1015.0236
0513 1420005859 1013.1053
0514 1420009765 1019.9267
0515 1420013671 1015.7264
0516 1420017578 1018.0208
0517 1420021484 1019.8765
0518 1420025390 1017.7644
0519 1420029296 1016.3038
0520 1420033203 1017.5207
0521 1420037109 1017.7396
0522 1420041015 1014.7174
0523 1420044921 1016.9310
0524 1420048828 1017.7911
0525 1420052734 1015.1682
0526 1420056640 1015.7181
0527 1420060546 1021.5387
0528 1420064453 1014.5677
0529 1420068359 1019.0032
0530 1420072265 1016.2947
0531 1420076171 1016.1562
0532 1420080078 1017.1241
0533 1420083984 1015.2895
0534 1420087890 1020.8613
0535 1420091796 1016.5425
0536 1420095703 1021.1012
0537 1420099609 1020.8990
0538 1420103515 1019.7860
0539 1420107421 1020.7014
0540 1420111328 1023.2551
0541 1420115234 1018.0502
0542 1420119140 1017.0591
0543 1420123046 1016.7477
0544 1420126953 1016.4951
0545 1420130859 1018.2013
0546 1420134765 1016.7794
0547 1420138671 1018.2617
0548 1420142578 1020.1128
0549 1420146484 1020.4346
0550 1420150390 1019.2783
0551 1420154296 1019.7848
0552 1420158203 1019.6040
0553 1420162109 1018.3300
0554 1420166015 1019.9718
0555 1420169921 1018.1113
0556 1420173828 1019.3519
0557 1420177734 1015.5501
0558 1420181640 1014.8895
0559 1420185546 1016.1522
0560 1420189453 1013.4225
0561 1420193359 1017.7231
0562 1420197265 1015.3015
0563 1420201171 1018.9062
0564 1420205078 1017.8577
0565 1420208984 1015.8362
0566 1420212890 1017.4733
0567 1420216796 1012.3815
0568 1420220703 1013.4301
0569 1420224609 1015.7253
0570 1420228515 1016.6021
0571 1420232421 1013.8359
0572 1420236328 1009.2181
0573 1420240234 1011.3499
0574 1420244140 1013.2372
0575 1420248046 1009.5591
0576 1420251953 1011.7703
0577 1420255859 1010.0648
0578 1420259765 1008.1580
0579 1420263671 1011.4648
0580 1420267578 1007.0604
0581 1420271484 1006.9132
0582 1420275390 1003.9019
0583 1420279296 1004.7964
0584 1420283203 1007.7098
0585 1420287109 1001.5916
0586 1420291015 1005.0719
0587 1420294921 1009.2556
0588 1420298828 1002.8436
0589 1420302734 1001.8911
0590 1420306640 1001.8628
0591 1420310546 1000.6484
0592 1420314453 1001.1309
0593 1420318359 1001.9895
0594 1420322265 1004.9446
0595 1420326171 999.2830
0596 1420330078 1000.6127
0597 1420333984 1001.0927
0598 1420337890 996.6564
0599 1420341796 997.0793
0600 1420345703 998.5436
0601 1420349609 994.2510
0602 1420353515 995.6708
0603 1420357421 999.0009
0604 1420361328 996.8029
0605 1420365234 998.4490
0606 1420369140 993.9136
0607 1420373046 994.0467
0608 1420376953 990.5051
0609 1420380859 988.8796
0610 1420384765 992.8683
0611 1420388671 993.8389
0612 1420392578 989.8341
0613 1420396484 990.2500
0614 1420400390 990.8087
0615 1420404296 988.7595
0616 1420408203 992.2375
0617 1420412109 991.7654
0618 1420416015 987.0761
0619 1420419921 985.8956
0620 1420423828 985.6699
0621 1420427734 988.2103
0622 1420431640 988.7020
0623 1420435546 987.0756
0624 1420439453 986.3120
0625 1420443359 982.7949
0626 1420447265 986.2480
0627 1420451171 983.2990
0628 1420455078 983.0640
0629 1420458984 982.6481
0630 1420462890 981.8604
0631 1420466796 982.4070
0632 1420470703 980.1671
0633 1420474609 982.6171
0634 1420478515 986.3052
0635 1420482421 979.4935
0636 1420486328 985.7922
0637 1420490234 982.5488
0638 1420494140 984.0508
0639 1420498046 982.4121
0640 1420501953 983.0884
0641 1420505859 984.3306
0642 1420509765 978.6342
0643 1420513671 978.6413
0644 1420517578 981.5705
0645 1420521484 980.8754
0646 1420525390 981.5466
0647 1420529296 982.4222
0648 1420533203 982.1533
0649 1420537109 987.6140
0650 1420541015 984.6740
0651 1420544921 982.3785
0652 1420548828 984.8871
0653 1420552734 980.0140
0654 1420556640 983.8234
0655 1420560546 986.7256
0656 1420564453 980.4265
0657 1420568359 980.4391
0658 1420572265 983.1234
0659 1420576171 985.5101
0660 1420580078 985.0111
0661 1420583984 988.8868
0662 1420587890 983.3627
0663 1420591796 981.5443
0664 1420595703 984.8456
0665 1420599609 985.6523
0666 1420603515 980.9172
0667 1420607421 982.7839
0668 1420611328 985.4224
0669 1420615234 983.6882
0670 1420619140 981.1130
0671 1420623046 984.0809
0672 1420626953 982.0580
0673 1420630859 982.6602
0674 1420634765 982.6434
0675 1420638671 983.6717
0676 1420642578 984.3657
0677 1420646484 979.5327
0678 1420650390 983.6749
0679 1420654296 976.4303
0680 1420658203 978.2721
0681 1420662109 981.0408
0682 1420666015 985.0561
0683 1420669921 981.4388
0684 1420673828 982.0157
0685 1420677734 982.0729
0686 1420681640 979.3605
0687 1420685546 981.1064
0688 1420689453 979.8638
0689 1420693359 984.2143
0690 1420697265 982.3272
0691 1420701171 977.9784
0692 1420705078 976.6258
0693 1420708984 977.8318
0694 1420712890 978.8016
0695 1420716796 980.8433
0696 1420720703 977.6008
0697 1420724609 976.5965
0698 1420728515 978.8488
0699 1420732421 977.1843
0700 1420736328 977.6721
0701 1420740234 975.3724
0702 1420744140 968.9307
0703 1420748046 971.5212
0704 1420751953 969.3425
0705 1420755859 972.3794
0706 1420759765 971.1962
0707 1420763671 976.1323
0708 1420767578 974.2017
0709 1420771484 968.6135
0710 1420775390 970.7476
0711 1420779296 971.2339
0712 1420783203 968.8305
0713 1420787109 964.4481
0714 1420791015 966.3600
0715 1420794921 968.7363
0716 1420798828 965.7913
0717 1420802734 968.1338
0718 1420806640 966.2823
0719 1420810546 968.2483
0720 1420814453 969.0082
0721 1420818359 967.3728
0722 1420822265 964.4340
0723 1420826171 963.5476
0724 1420830078 965.6768
0725 1420833984 963.2526
0726 1420837890 965.3884
0727 1420841796 962.8904
0728 1420845703 963.1312
0729 1420849609 962.4301
0730 1420853515 958.5416
0731 1420857421 961.3799
0732 1420861328 961.0632
0733 1420865234 959.3747
