# File: 20-11-28T180814.hot
# NOTEA     = RSP1A+GPIOLabs Pi #1 On Horn
# NOTEB     = Sdrplay 8 MHz Test
# OBSERVER  = Science Aficionado
# DEVICE    = SDRPlay RSP1A
# DATADIR   = ../data/
# SITE      = RSP1A+GPIOLabs Pi #1 On Horn
# CITY      = Green Bank
# REGION    = West Virginia
# COUNTRY   = US
# TELTYPE   = Bubble Wrap  Horn
# FRAME     = TOPO
# GAIN1     = 0.0
# GAIN2     = 12.0
# GAIN3     = 12.0
# GAIN4     = 0.0
# Count     = 360000
# CenterFreq= 1422000000.0
# Bandwidth = 8000000.0
# Duration  = 157.285401
# DeltaX    = 5859.375
# TSYS      = 200.0
# TRX       = 100.0
# TRMS      = 2.0
# TINT      = 1.0
# KPERC     = 100.0
# GAINFACT  = 1.0
# BUNIT     = Counts
# NCHAN     = 2048
# NSPEC     = 1
# NTIME     = 0
# NSAMPLES  = 0
# EPEAK     = 4.10875183718
# ERMS      = 0.995973393526
# EMJD      = 58568.808999981004 
# REFCHAN   = 1024.0
# REFSAMPL  = 256.0
# NAVE      = 600
# NMEDIAN   = 1024
# Fft_rate  = 5000
# UTC       = 2020-11-28 18:08:14.550284
# SECONDS   =       0.0000000000 
# LST       = 17:21:16.300
# AZ        = 180.0
# EL        = -40.0
# TELLON    = -79:50:22.920
# TELLAT    = +38:25:59.160
# RA        = 05:52:13.030
# DEC       = -88:27:30.000
# GALLON    = 301:15:04.90
# GALLAT    = -27:30:43.90
# ALT_SUN   = +28:27:09.4
# AZ_SUN    = +196:04:47.0
# ETAA      = 0.8
# ETAB      = 0.99
# POLANGLE  = 0.0
# TELSIZEAM = 1.0
# TELSIZEBM = 1.0
# AST_VERS  = 05.01
0000 1418001953 0.8397
0001 1418005859 0.8404
0002 1418009765 0.8422
0003 1418013671 0.8422
0004 1418017578 0.8434
0005 1418021484 0.8483
0006 1418025390 0.8478
0007 1418029296 0.8525
0008 1418033203 0.8519
0009 1418037109 0.8571
0010 1418041015 0.8570
0011 1418044921 0.8624
0012 1418048828 0.8657
0013 1418052734 0.8643
0014 1418056640 0.8673
0015 1418060546 0.8695
0016 1418064453 0.8692
0017 1418068359 0.8698
0018 1418072265 0.8711
0019 1418076171 0.8685
0020 1418080078 0.8673
0021 1418083984 0.8641
0022 1418087890 0.8589
0023 1418091796 0.8541
0024 1418095703 0.8435
0025 1418099609 0.8378
0026 1418103515 0.8292
0027 1418107421 0.8167
0028 1418111328 0.8050
0029 1418115234 0.7874
0030 1418119140 0.7680
0031 1418123046 0.7457
0032 1418126953 0.7243
0033 1418130859 0.7019
0034 1418134765 0.6727
0035 1418138671 0.6459
0036 1418142578 0.6135
0037 1418146484 0.5791
0038 1418150390 0.5421
0039 1418154296 0.5048
0040 1418158203 0.4637
0041 1418162109 0.4244
0042 1418166015 0.3792
0043 1418169921 0.3377
0044 1418173828 0.2953
0045 1418177734 0.2528
0046 1418181640 0.2098
0047 1418185546 0.1709
0048 1418189453 0.1336
0049 1418193359 0.1004
0050 1418197265 0.0720
0051 1418201171 0.0506
0052 1418205078 0.0369
0053 1418208984 0.0329
0054 1418212890 0.0405
0055 1418216796 0.0614
0056 1418220703 0.0981
0057 1418224609 0.1537
0058 1418228515 0.2303
0059 1418232421 0.3303
0060 1418236328 0.4577
0061 1418240234 0.6184
0062 1418244140 0.8078
0063 1418248046 1.0380
0064 1418251953 1.3136
0065 1418255859 1.6335
0066 1418259765 2.0125
0067 1418263671 2.4410
0068 1418267578 2.9232
0069 1418271484 3.4913
0070 1418275390 4.1335
0071 1418279296 4.8336
0072 1418283203 5.6443
0073 1418287109 6.5252
0074 1418291015 7.5351
0075 1418294921 8.6111
0076 1418298828 9.8714
0077 1418302734 11.2431
0078 1418306640 12.6623
0079 1418310546 14.3105
0080 1418314453 16.0550
0081 1418318359 17.9502
0082 1418322265 20.1620
0083 1418326171 22.3204
0084 1418330078 24.7780
0085 1418333984 27.4769
0086 1418337890 30.3136
0087 1418341796 33.3563
0088 1418345703 36.6557
0089 1418349609 40.1583
0090 1418353515 43.9375
0091 1418357421 47.9636
0092 1418361328 52.2653
0093 1418365234 56.7251
0094 1418369140 61.3360
0095 1418373046 66.8772
0096 1418376953 71.9545
0097 1418380859 77.6034
0098 1418384765 83.8129
0099 1418388671 90.2435
0100 1418392578 96.9809
0101 1418396484 103.9988
0102 1418400390 110.7923
0103 1418404296 118.4966
0104 1418408203 126.6500
0105 1418412109 134.8950
0106 1418416015 143.9991
0107 1418419921 152.4734
0108 1418423828 162.0853
0109 1418427734 171.5350
0110 1418431640 181.5959
0111 1418435546 191.9268
0112 1418439453 202.2821
0113 1418443359 213.9955
0114 1418447265 226.3228
0115 1418451171 237.2403
0116 1418455078 250.0697
0117 1418458984 261.4345
0118 1418462890 275.4470
0119 1418466796 287.9726
0120 1418470703 301.1104
0121 1418474609 315.4880
0122 1418478515 328.1970
0123 1418482421 343.5819
0124 1418486328 358.4738
0125 1418490234 372.1249
0126 1418494140 387.6028
0127 1418498046 401.8272
0128 1418501953 416.8228
0129 1418505859 434.3593
0130 1418509765 450.7314
0131 1418513671 467.0311
0132 1418517578 481.8253
0133 1418521484 498.1525
0134 1418525390 517.1006
0135 1418529296 531.6990
0136 1418533203 547.1309
0137 1418537109 564.9824
0138 1418541015 578.1321
0139 1418544921 597.3911
0140 1418548828 615.4331
0141 1418552734 629.8561
0142 1418556640 647.6815
0143 1418560546 664.6108
0144 1418564453 681.1394
0145 1418568359 698.6147
0146 1418572265 714.9339
0147 1418576171 728.1979
0148 1418580078 744.8018
0149 1418583984 760.9780
0150 1418587890 777.2314
0151 1418591796 792.8134
0152 1418595703 805.0384
0153 1418599609 821.7787
0154 1418603515 838.3434
0155 1418607421 852.5647
0156 1418611328 865.9781
0157 1418615234 882.7952
0158 1418619140 892.3087
0159 1418623046 905.1158
0160 1418626953 918.6994
0161 1418630859 930.7635
0162 1418634765 945.5502
0163 1418638671 960.6780
0164 1418642578 970.6442
0165 1418646484 976.9067
0166 1418650390 990.2663
0167 1418654296 999.5566
0168 1418658203 1010.3845
0169 1418662109 1017.6220
0170 1418666015 1028.8057
0171 1418669921 1039.6763
0172 1418673828 1041.4652
0173 1418677734 1057.5023
0174 1418681640 1061.1478
0175 1418685546 1062.9438
0176 1418689453 1073.3273
0177 1418693359 1078.4058
0178 1418697265 1087.3641
0179 1418701171 1092.5005
0180 1418705078 1101.4146
0181 1418708984 1101.2958
0182 1418712890 1108.9683
0183 1418716796 1105.8473
0184 1418720703 1113.5309
0185 1418724609 1121.3540
0186 1418728515 1117.8236
0187 1418732421 1122.5199
0188 1418736328 1124.8188
0189 1418740234 1129.7926
0190 1418744140 1128.3202
0191 1418748046 1135.9508
0192 1418751953 1127.9456
0193 1418755859 1134.2435
0194 1418759765 1132.7903
0195 1418763671 1133.5637
0196 1418767578 1130.4384
0197 1418771484 1134.2661
0198 1418775390 1132.6139
0199 1418779296 1129.7894
0200 1418783203 1131.8201
0201 1418787109 1130.4589
0202 1418791015 1124.4895
0203 1418794921 1126.7335
0204 1418798828 1128.5825
0205 1418802734 1123.5007
0206 1418806640 1117.2334
0207 1418810546 1116.9309
0208 1418814453 1118.2944
0209 1418818359 1115.3556
0210 1418822265 1106.8456
0211 1418826171 1107.1014
0212 1418830078 1105.8994
0213 1418833984 1103.9655
0214 1418837890 1102.1754
0215 1418841796 1091.4268
0216 1418845703 1090.9268
0217 1418849609 1087.0922
0218 1418853515 1084.8496
0219 1418857421 1084.9259
0220 1418861328 1080.8301
0221 1418865234 1073.5886
0222 1418869140 1073.2791
0223 1418873046 1075.0618
0224 1418876953 1071.3976
0225 1418880859 1063.4594
0226 1418884765 1062.9014
0227 1418888671 1058.7560
0228 1418892578 1054.7928
0229 1418896484 1048.9159
0230 1418900390 1049.2521
0231 1418904296 1043.9363
0232 1418908203 1043.4111
0233 1418912109 1040.0276
0234 1418916015 1038.2391
0235 1418919921 1033.8866
0236 1418923828 1032.2321
0237 1418927734 1030.3695
0238 1418931640 1027.6302
0239 1418935546 1026.0596
0240 1418939453 1024.7766
0241 1418943359 1020.5496
0242 1418947265 1018.8916
0243 1418951171 1014.3466
0244 1418955078 1015.1221
0245 1418958984 1016.1425
0246 1418962890 1010.0225
0247 1418966796 1007.4854
0248 1418970703 1009.8130
0249 1418974609 1003.5283
0250 1418978515 1002.8244
0251 1418982421 1003.6940
0252 1418986328 998.8876
0253 1418990234 999.6761
0254 1418994140 998.1385
0255 1418998046 996.7880
0256 1419001953 998.3011
0257 1419005859 998.9086
0258 1419009765 995.5765
0259 1419013671 1000.4706
0260 1419017578 998.3550
0261 1419021484 995.9758
0262 1419025390 996.0541
0263 1419029296 995.4197
0264 1419033203 995.6858
0265 1419037109 992.3432
0266 1419041015 991.9687
0267 1419044921 995.5279
0268 1419048828 993.2985
0269 1419052734 991.2463
0270 1419056640 992.8159
0271 1419060546 995.0271
0272 1419064453 998.4059
0273 1419068359 998.5692
0274 1419072265 997.0583
0275 1419076171 1001.3422
0276 1419080078 998.8571
0277 1419083984 1002.5045
0278 1419087890 1002.3011
0279 1419091796 1002.5833
0280 1419095703 1003.5202
0281 1419099609 1002.8765
0282 1419103515 1010.2277
0283 1419107421 1005.8873
0284 1419111328 1010.5290
0285 1419115234 1006.4850
0286 1419119140 1010.4123
0287 1419123046 1014.3240
0288 1419126953 1015.3741
0289 1419130859 1015.0829
0290 1419134765 1019.9364
0291 1419138671 1020.9266
0292 1419142578 1019.1657
0293 1419146484 1027.5334
0294 1419150390 1025.6167
0295 1419154296 1022.9705
0296 1419158203 1026.0797
0297 1419162109 1026.7136
0298 1419166015 1026.3650
0299 1419169921 1031.8871
0300 1419173828 1029.8546
0301 1419177734 1036.4321
0302 1419181640 1040.7068
0303 1419185546 1038.8983
0304 1419189453 1035.0187
0305 1419193359 1037.8848
0306 1419197265 1036.5210
0307 1419201171 1037.3824
0308 1419205078 1041.3365
0309 1419208984 1044.7312
0310 1419212890 1041.2805
0311 1419216796 1048.7656
0312 1419220703 1048.4377
0313 1419224609 1048.4518
0314 1419228515 1045.8831
0315 1419232421 1049.2952
0316 1419236328 1054.6725
0317 1419240234 1056.1847
0318 1419244140 1055.0118
0319 1419248046 1057.1036
0320 1419251953 1059.7566
0321 1419255859 1054.4758
0322 1419259765 1058.5021
0323 1419263671 1058.2131
0324 1419267578 1059.2261
0325 1419271484 1058.9980
0326 1419275390 1059.2734
0327 1419279296 1062.0483
0328 1419283203 1063.3550
0329 1419287109 1064.7620
0330 1419291015 1065.1727
0331 1419294921 1061.7542
0332 1419298828 1067.4435
0333 1419302734 1068.2994
0334 1419306640 1067.2941
0335 1419310546 1066.6616
0336 1419314453 1063.1948
0337 1419318359 1064.8335
0338 1419322265 1067.6591
0339 1419326171 1065.4794
0340 1419330078 1068.9172
0341 1419333984 1069.4337
0342 1419337890 1072.6917
0343 1419341796 1070.8945
0344 1419345703 1070.6031
0345 1419349609 1070.8258
0346 1419353515 1068.0781
0347 1419357421 1070.4291
0348 1419361328 1069.0239
0349 1419365234 1072.0492
0350 1419369140 1069.7832
0351 1419373046 1075.5443
0352 1419376953 1071.9534
0353 1419380859 1068.7750
0354 1419384765 1073.5645
0355 1419388671 1074.4503
0356 1419392578 1072.5918
0357 1419396484 1072.7961
0358 1419400390 1075.4417
0359 1419404296 1075.6877
0360 1419408203 1072.6423
0361 1419412109 1072.9274
0362 1419416015 1073.9847
0363 1419419921 1079.0876
0364 1419423828 1069.5625
0365 1419427734 1074.0436
0366 1419431640 1073.6078
0367 1419435546 1076.7787
0368 1419439453 1073.3970
0369 1419443359 1073.3582
0370 1419447265 1073.5563
0371 1419451171 1074.2795
0372 1419455078 1073.3656
0373 1419458984 1075.3568
0374 1419462890 1073.7363
0375 1419466796 1075.5753
0376 1419470703 1079.1329
0377 1419474609 1078.1782
0378 1419478515 1073.0261
0379 1419482421 1073.9000
0380 1419486328 1068.6978
0381 1419490234 1074.2491
0382 1419494140 1076.0363
0383 1419498046 1079.7478
0384 1419501953 1075.3605
0385 1419505859 1080.5133
0386 1419509765 1079.4103
0387 1419513671 1080.1758
0388 1419517578 1076.4612
0389 1419521484 1073.3994
0390 1419525390 1080.9730
0391 1419529296 1080.9257
0392 1419533203 1077.2344
0393 1419537109 1079.3677
0394 1419541015 1078.6299
0395 1419544921 1074.9968
0396 1419548828 1077.0184
0397 1419552734 1080.4559
0398 1419556640 1075.4663
0399 1419560546 1077.0801
0400 1419564453 1080.4177
0401 1419568359 1076.3073
0402 1419572265 1078.1725
0403 1419576171 1078.1431
0404 1419580078 1081.8046
0405 1419583984 1079.2566
0406 1419587890 1077.7250
0407 1419591796 1076.9384
0408 1419595703 1079.4238
0409 1419599609 1074.6287
0410 1419603515 1077.8073
0411 1419607421 1076.3788
0412 1419611328 1078.0311
0413 1419615234 1081.5209
0414 1419619140 1076.0044
0415 1419623046 1077.1962
0416 1419626953 1076.2791
0417 1419630859 1078.0259
0418 1419634765 1076.1191
0419 1419638671 1078.0839
0420 1419642578 1074.2183
0421 1419646484 1074.1053
0422 1419650390 1079.8639
0423 1419654296 1070.8009
0424 1419658203 1074.2230
0425 1419662109 1074.7106
0426 1419666015 1070.4934
0427 1419669921 1069.2336
0428 1419673828 1068.0819
0429 1419677734 1071.3669
0430 1419681640 1073.8381
0431 1419685546 1069.4813
0432 1419689453 1066.2236
0433 1419693359 1070.5179
0434 1419697265 1064.0201
0435 1419701171 1068.7493
0436 1419705078 1064.7017
0437 1419708984 1066.9180
0438 1419712890 1064.6897
0439 1419716796 1064.1060
0440 1419720703 1061.4430
0441 1419724609 1059.7156
0442 1419728515 1063.1776
0443 1419732421 1058.1500
0444 1419736328 1059.8341
0445 1419740234 1058.4604
0446 1419744140 1055.6855
0447 1419748046 1056.8840
0448 1419751953 1058.5674
0449 1419755859 1055.0660
0450 1419759765 1054.1758
0451 1419763671 1054.1543
0452 1419767578 1049.3149
0453 1419771484 1050.8085
0454 1419775390 1051.8975
0455 1419779296 1049.0344
0456 1419783203 1045.3793
0457 1419787109 1047.7170
0458 1419791015 1045.7828
0459 1419794921 1041.6656
0460 1419798828 1045.1171
0461 1419802734 1040.0271
0462 1419806640 1041.1449
0463 1419810546 1042.8531
0464 1419814453 1041.5668
0465 1419818359 1043.8414
0466 1419822265 1039.9899
0467 1419826171 1036.6475
0468 1419830078 1039.6633
0469 1419833984 1036.8315
0470 1419837890 1033.1134
0471 1419841796 1031.0990
0472 1419845703 1036.9110
0473 1419849609 1031.7449
0474 1419853515 1031.9083
0475 1419857421 1033.3707
0476 1419861328 1032.0513
0477 1419865234 1030.6154
0478 1419869140 1030.2141
0479 1419873046 1026.1316
0480 1419876953 1023.9854
0481 1419880859 1021.4802
0482 1419884765 1025.1888
0483 1419888671 1021.7086
0484 1419892578 1024.5491
0485 1419896484 1025.3101
0486 1419900390 1022.4026
0487 1419904296 1021.3639
0488 1419908203 1022.9975
0489 1419912109 1021.0765
0490 1419916015 1023.9052
0491 1419919921 1017.7568
0492 1419923828 1023.1577
0493 1419927734 1019.1189
0494 1419931640 1016.8477
0495 1419935546 1020.8702
0496 1419939453 1018.9512
0497 1419943359 1020.9186
0498 1419947265 1020.8275
0499 1419951171 1018.0266
0500 1419955078 1013.6006
0501 1419958984 1016.7271
0502 1419962890 1016.0750
0503 1419966796 1016.5698
0504 1419970703 1017.7205
0505 1419974609 1016.2389
0506 1419978515 1016.5220
0507 1419982421 1013.4824
0508 1419986328 1017.5629
0509 1419990234 1015.5837
0510 1419994140 1016.2678
0511 1419998046 1016.4906
0512 1420001953 1017.3617
0513 1420005859 1015.0049
0514 1420009765 1013.2365
0515 1420013671 1016.8660
0516 1420017578 1017.7869
0517 1420021484 1017.8695
0518 1420025390 1014.0842
0519 1420029296 1015.5047
0520 1420033203 1014.3837
0521 1420037109 1016.7927
0522 1420041015 1016.5486
0523 1420044921 1016.4019
0524 1420048828 1015.9036
0525 1420052734 1021.0078
0526 1420056640 1018.5875
0527 1420060546 1019.0084
0528 1420064453 1018.7078
0529 1420068359 1016.7471
0530 1420072265 1017.4089
0531 1420076171 1016.4885
0532 1420080078 1016.0464
0533 1420083984 1020.9827
0534 1420087890 1014.9488
0535 1420091796 1018.9912
0536 1420095703 1020.5663
0537 1420099609 1019.4464
0538 1420103515 1018.6766
0539 1420107421 1021.8299
0540 1420111328 1017.4433
0541 1420115234 1019.3348
0542 1420119140 1015.0461
0543 1420123046 1022.9927
0544 1420126953 1016.4238
0545 1420130859 1023.1831
0546 1420134765 1021.4312
0547 1420138671 1018.1720
0548 1420142578 1019.5724
0549 1420146484 1020.8452
0550 1420150390 1017.9109
0551 1420154296 1014.8154
0552 1420158203 1020.2128
0553 1420162109 1019.6671
0554 1420166015 1022.4459
0555 1420169921 1022.0185
0556 1420173828 1015.8581
0557 1420177734 1016.1063
0558 1420181640 1020.9569
0559 1420185546 1018.3528
0560 1420189453 1016.4141
0561 1420193359 1014.8514
0562 1420197265 1013.5671
0563 1420201171 1014.0953
0564 1420205078 1017.8280
0565 1420208984 1014.3982
0566 1420212890 1015.9506
0567 1420216796 1016.9333
0568 1420220703 1010.5192
0569 1420224609 1015.0749
0570 1420228515 1014.7405
0571 1420232421 1014.3214
0572 1420236328 1014.8595
0573 1420240234 1007.8892
0574 1420244140 1012.6689
0575 1420248046 1012.3809
0576 1420251953 1011.6837
0577 1420255859 1013.0073
0578 1420259765 1008.0530
0579 1420263671 1008.9321
0580 1420267578 1009.6326
0581 1420271484 1006.7663
0582 1420275390 1010.0672
0583 1420279296 1006.7556
0584 1420283203 1005.5710
0585 1420287109 1004.9622
0586 1420291015 1004.4143
0587 1420294921 1008.3857
0588 1420298828 1003.4742
0589 1420302734 1004.4031
0590 1420306640 1007.8423
0591 1420310546 1006.0988
0592 1420314453 1006.7322
0593 1420318359 1000.9926
0594 1420322265 1003.5654
0595 1420326171 1003.9839
0596 1420330078 994.0934
0597 1420333984 996.4518
0598 1420337890 998.2402
0599 1420341796 997.7394
0600 1420345703 1003.4562
0601 1420349609 998.7280
0602 1420353515 999.5333
0603 1420357421 999.4446
0604 1420361328 1000.4853
0605 1420365234 997.8118
0606 1420369140 995.0518
0607 1420373046 997.9767
0608 1420376953 992.1820
0609 1420380859 994.9603
0610 1420384765 991.5191
0611 1420388671 994.6687
0612 1420392578 992.2517
0613 1420396484 990.9783
0614 1420400390 989.6572
0615 1420404296 990.3126
0616 1420408203 987.3787
0617 1420412109 987.3515
0618 1420416015 983.6883
0619 1420419921 990.9792
0620 1420423828 984.8802
0621 1420427734 984.1851
0622 1420431640 985.6573
0623 1420435546 985.3549
0624 1420439453 985.0833
0625 1420443359 987.4793
0626 1420447265 987.1989
0627 1420451171 984.6821
0628 1420455078 981.6594
0629 1420458984 982.7485
0630 1420462890 982.9802
0631 1420466796 982.1313
0632 1420470703 987.5418
0633 1420474609 981.6086
0634 1420478515 982.0226
0635 1420482421 981.6314
0636 1420486328 982.1168
0637 1420490234 980.7963
0638 1420494140 982.6063
0639 1420498046 988.2676
0640 1420501953 984.6183
0641 1420505859 983.2838
0642 1420509765 979.9715
0643 1420513671 980.5735
0644 1420517578 983.1104
0645 1420521484 984.8879
0646 1420525390 979.6813
0647 1420529296 982.1987
0648 1420533203 983.5302
0649 1420537109 983.4982
0650 1420541015 981.6066
0651 1420544921 985.7217
0652 1420548828 985.6740
0653 1420552734 985.6034
0654 1420556640 985.3831
0655 1420560546 984.9858
0656 1420564453 984.9755
0657 1420568359 984.9470
0658 1420572265 982.0015
0659 1420576171 983.1776
0660 1420580078 983.5948
0661 1420583984 982.6405
0662 1420587890 983.2270
0663 1420591796 982.7933
0664 1420595703 986.4381
0665 1420599609 983.0325
0666 1420603515 985.6603
0667 1420607421 986.1119
0668 1420611328 978.6024
0669 1420615234 982.5595
0670 1420619140 982.0765
0671 1420623046 984.7364
0672 1420626953 982.1980
0673 1420630859 987.1353
0674 1420634765 988.2410
0675 1420638671 986.5460
0676 1420642578 981.5266
0677 1420646484 979.8737
0678 1420650390 982.9285
0679 1420654296 983.1979
0680 1420658203 982.2134
0681 1420662109 985.0768
0682 1420666015 981.1055
0683 1420669921 980.8151
0684 1420673828 979.5898
0685 1420677734 980.9117
0686 1420681640 978.7487
0687 1420685546 980.3123
0688 1420689453 982.7181
0689 1420693359 982.3589
0690 1420697265 978.4395
0691 1420701171 979.4930
0692 1420705078 978.3973
0693 1420708984 976.5878
0694 1420712890 978.7258
0695 1420716796 977.5295
0696 1420720703 981.4087
0697 1420724609 980.9645
0698 1420728515 975.9928
0699 1420732421 974.3547
0700 1420736328 974.9200
0701 1420740234 975.6997
0702 1420744140 977.6678
0703 1420748046 972.3127
0704 1420751953 969.6532
0705 1420755859 971.4753
0706 1420759765 971.4399
0707 1420763671 970.2584
0708 1420767578 969.9296
0709 1420771484 972.8788
0710 1420775390 971.6424
0711 1420779296 973.5265
0712 1420783203 968.9837
0713 1420787109 969.3220
0714 1420791015 967.3494
0715 1420794921 966.2174
0716 1420798828 968.0129
0717 1420802734 968.0016
0718 1420806640 963.6784
0719 1420810546 966.2100
0720 1420814453 970.1206
0721 1420818359 967.5394
0722 1420822265 964.2068
0723 1420826171 962.8265
0724 1420830078 965.6412
0725 1420833984 964.9047
0726 1420837890 962.5405
0727 1420841796 961.9553
0728 1420845703 963.7551
0729 1420849609 963.8862
0730 1420853515 963.1080
0731 1420857421 962.8549
0732 1420861328 964.1836
0733 1420865234 961.0270
