# File: 20-11-28T180537.hot
# NOTEA     = RSP1A+GPIOLabs Pi #1 On Horn
# NOTEB     = Sdrplay 8 MHz Test
# OBSERVER  = Science Aficionado
# DEVICE    = SDRPlay RSP1A
# DATADIR   = ../data/
# SITE      = RSP1A+GPIOLabs Pi #1 On Horn
# CITY      = Green Bank
# REGION    = West Virginia
# COUNTRY   = US
# TELTYPE   = Bubble Wrap  Horn
# FRAME     = TOPO
# GAIN1     = 0.0
# GAIN2     = 12.0
# GAIN3     = 12.0
# GAIN4     = 0.0
# Count     = 360000
# CenterFreq= 1422000000.0
# Bandwidth = 8000000.0
# Duration  = 157.283187
# DeltaX    = 5859.375
# TSYS      = 200.0
# TRX       = 100.0
# TRMS      = 2.0
# TINT      = 1.0
# KPERC     = 100.0
# GAINFACT  = 1.0
# BUNIT     = Counts
# NCHAN     = 2048
# NSPEC     = 1
# NTIME     = 0
# NSAMPLES  = 0
# EPEAK     = 4.10875183718
# ERMS      = 0.995973393526
# EMJD      = 58568.808999981004 
# REFCHAN   = 1024.0
# REFSAMPL  = 256.0
# NAVE      = 600
# NMEDIAN   = 1024
# Fft_rate  = 5000
# UTC       = 2020-11-28 18:05:37.265990
# SECONDS   =       0.0000000000 
# LST       = 17:18:38.590
# AZ        = 180.0
# EL        = -40.0
# TELLON    = -79:50:22.920
# TELLAT    = +38:25:59.160
# RA        = 05:49:34.270
# DEC       = -88:27:39.300
# GALLON    = 301:15:32.90
# GALLAT    = -27:31:43.60
# ALT_SUN   = +28:35:31.1
# AZ_SUN    = +195:24:15.8
# ETAA      = 0.8
# ETAB      = 0.99
# POLANGLE  = 0.0
# TELSIZEAM = 1.0
# TELSIZEBM = 1.0
# AST_VERS  = 05.01
0000 1418001953 0.8322
0001 1418005859 0.8331
0002 1418009765 0.8353
0003 1418013671 0.8341
0004 1418017578 0.8363
0005 1418021484 0.8430
0006 1418025390 0.8438
0007 1418029296 0.8450
0008 1418033203 0.8447
0009 1418037109 0.8490
0010 1418041015 0.8504
0011 1418044921 0.8541
0012 1418048828 0.8547
0013 1418052734 0.8560
0014 1418056640 0.8575
0015 1418060546 0.8595
0016 1418064453 0.8599
0017 1418068359 0.8594
0018 1418072265 0.8603
0019 1418076171 0.8590
0020 1418080078 0.8548
0021 1418083984 0.8526
0022 1418087890 0.8511
0023 1418091796 0.8432
0024 1418095703 0.8350
0025 1418099609 0.8300
0026 1418103515 0.8187
0027 1418107421 0.8056
0028 1418111328 0.7894
0029 1418115234 0.7760
0030 1418119140 0.7608
0031 1418123046 0.7375
0032 1418126953 0.7170
0033 1418130859 0.6912
0034 1418134765 0.6650
0035 1418138671 0.6372
0036 1418142578 0.6072
0037 1418146484 0.5732
0038 1418150390 0.5361
0039 1418154296 0.5000
0040 1418158203 0.4592
0041 1418162109 0.4181
0042 1418166015 0.3777
0043 1418169921 0.3336
0044 1418173828 0.2910
0045 1418177734 0.2489
0046 1418181640 0.2076
0047 1418185546 0.1688
0048 1418189453 0.1320
0049 1418193359 0.0992
0050 1418197265 0.0715
0051 1418201171 0.0500
0052 1418205078 0.0368
0053 1418208984 0.0328
0054 1418212890 0.0401
0055 1418216796 0.0612
0056 1418220703 0.0975
0057 1418224609 0.1525
0058 1418228515 0.2274
0059 1418232421 0.3260
0060 1418236328 0.4526
0061 1418240234 0.6098
0062 1418244140 0.8005
0063 1418248046 1.0325
0064 1418251953 1.2973
0065 1418255859 1.6094
0066 1418259765 1.9766
0067 1418263671 2.4079
0068 1418267578 2.8914
0069 1418271484 3.4544
0070 1418275390 4.0718
0071 1418279296 4.7721
0072 1418283203 5.5685
0073 1418287109 6.4573
0074 1418291015 7.4343
0075 1418294921 8.5552
0076 1418298828 9.7584
0077 1418302734 11.0850
0078 1418306640 12.5665
0079 1418310546 14.1579
0080 1418314453 15.8545
0081 1418318359 17.7471
0082 1418322265 19.8263
0083 1418326171 22.1012
0084 1418330078 24.5560
0085 1418333984 27.2054
0086 1418337890 29.8622
0087 1418341796 33.0605
0088 1418345703 36.2869
0089 1418349609 39.7691
0090 1418353515 43.4342
0091 1418357421 47.4200
0092 1418361328 51.5914
0093 1418365234 56.2193
0094 1418369140 61.0128
0095 1418373046 65.7506
0096 1418376953 71.3309
0097 1418380859 77.1761
0098 1418384765 82.8278
0099 1418388671 88.7358
0100 1418392578 95.6343
0101 1418396484 102.1346
0102 1418400390 109.3972
0103 1418404296 117.5682
0104 1418408203 124.9924
0105 1418412109 133.0779
0106 1418416015 141.8896
0107 1418419921 151.0763
0108 1418423828 160.0784
0109 1418427734 169.6842
0110 1418431640 179.9005
0111 1418435546 189.9512
0112 1418439453 200.7179
0113 1418443359 211.3798
0114 1418447265 222.4034
0115 1418451171 234.3741
0116 1418455078 246.8620
0117 1418458984 258.4208
0118 1418462890 270.8178
0119 1418466796 283.4326
0120 1418470703 297.3605
0121 1418474609 310.7494
0122 1418478515 323.4509
0123 1418482421 338.8735
0124 1418486328 352.2733
0125 1418490234 367.5437
0126 1418494140 382.6964
0127 1418498046 397.2426
0128 1418501953 411.0582
0129 1418505859 429.2797
0130 1418509765 443.1596
0131 1418513671 459.1931
0132 1418517578 477.2427
0133 1418521484 492.7377
0134 1418525390 508.1785
0135 1418529296 522.0758
0136 1418533203 540.0813
0137 1418537109 556.9383
0138 1418541015 571.8398
0139 1418544921 590.0209
0140 1418548828 607.7092
0141 1418552734 620.4601
0142 1418556640 636.4875
0143 1418560546 654.4792
0144 1418564453 673.7874
0145 1418568359 689.9102
0146 1418572265 705.4404
0147 1418576171 720.7743
0148 1418580078 738.2519
0149 1418583984 751.0899
0150 1418587890 767.5218
0151 1418591796 781.1716
0152 1418595703 795.2912
0153 1418599609 808.8638
0154 1418603515 824.1967
0155 1418607421 840.9670
0156 1418611328 854.1602
0157 1418615234 866.3201
0158 1418619140 883.5908
0159 1418623046 895.2444
0160 1418626953 908.8693
0161 1418630859 922.3261
0162 1418634765 936.1771
0163 1418638671 940.3452
0164 1418642578 953.1921
0165 1418646484 965.7147
0166 1418650390 978.3062
0167 1418654296 988.9814
0168 1418658203 996.3234
0169 1418662109 1005.3963
0170 1418666015 1014.0120
0171 1418669921 1020.7318
0172 1418673828 1037.0134
0173 1418677734 1041.2416
0174 1418681640 1046.2931
0175 1418685546 1051.8654
0176 1418689453 1059.1398
0177 1418693359 1063.9767
0178 1418697265 1070.6053
0179 1418701171 1084.0687
0180 1418705078 1083.9004
0181 1418708984 1085.3560
0182 1418712890 1091.1307
0183 1418716796 1097.7137
0184 1418720703 1100.9103
0185 1418724609 1106.5817
0186 1418728515 1105.0507
0187 1418732421 1107.5580
0188 1418736328 1112.5432
0189 1418740234 1109.1667
0190 1418744140 1109.8031
0191 1418748046 1117.6588
0192 1418751953 1114.4534
0193 1418755859 1119.4148
0194 1418759765 1116.7240
0195 1418763671 1118.5105
0196 1418767578 1118.8634
0197 1418771484 1113.0890
0198 1418775390 1116.3182
0199 1418779296 1117.0740
0200 1418783203 1114.3424
0201 1418787109 1117.4591
0202 1418791015 1115.6497
0203 1418794921 1112.4955
0204 1418798828 1109.6421
0205 1418802734 1108.5328
0206 1418806640 1108.0951
0207 1418810546 1102.2820
0208 1418814453 1099.2025
0209 1418818359 1094.4834
0210 1418822265 1098.9211
0211 1418826171 1097.3158
0212 1418830078 1090.0984
0213 1418833984 1086.4420
0214 1418837890 1086.2128
0215 1418841796 1081.4583
0216 1418845703 1078.4419
0217 1418849609 1076.2081
0218 1418853515 1070.2383
0219 1418857421 1064.8707
0220 1418861328 1066.1174
0221 1418865234 1064.1758
0222 1418869140 1060.9552
0223 1418873046 1055.3298
0224 1418876953 1048.9617
0225 1418880859 1046.8434
0226 1418884765 1045.6433
0227 1418888671 1039.4696
0228 1418892578 1039.2953
0229 1418896484 1039.5054
0230 1418900390 1033.0610
0231 1418904296 1035.1257
0232 1418908203 1026.7112
0233 1418912109 1025.4524
0234 1418916015 1025.2950
0235 1418919921 1015.8784
0236 1418923828 1015.1078
0237 1418927734 1010.6580
0238 1418931640 1011.5634
0239 1418935546 1011.8500
0240 1418939453 1009.5541
0241 1418943359 1006.7852
0242 1418947265 1004.3186
0243 1418951171 1001.1445
0244 1418955078 1000.3925
0245 1418958984 999.2153
0246 1418962890 991.7357
0247 1418966796 996.0291
0248 1418970703 994.0352
0249 1418974609 990.7734
0250 1418978515 994.8716
0251 1418982421 991.7433
0252 1418986328 989.0181
0253 1418990234 991.4975
0254 1418994140 987.9338
0255 1418998046 987.7542
0256 1419001953 986.3586
0257 1419005859 986.9086
0258 1419009765 983.6144
0259 1419013671 983.5591
0260 1419017578 983.8029
0261 1419021484 983.5660
0262 1419025390 982.2941
0263 1419029296 983.3744
0264 1419033203 980.5391
0265 1419037109 980.8642
0266 1419041015 981.1183
0267 1419044921 983.3687
0268 1419048828 982.9310
0269 1419052734 983.1062
0270 1419056640 985.0648
0271 1419060546 986.5285
0272 1419064453 985.9654
0273 1419068359 987.7496
0274 1419072265 986.7595
0275 1419076171 991.1105
0276 1419080078 992.3882
0277 1419083984 988.8647
0278 1419087890 989.6469
0279 1419091796 994.1879
0280 1419095703 994.5735
0281 1419099609 996.1728
0282 1419103515 996.6769
0283 1419107421 999.3571
0284 1419111328 995.4061
0285 1419115234 996.1935
0286 1419119140 997.7244
0287 1419123046 1002.4667
0288 1419126953 1000.3507
0289 1419130859 1007.6905
0290 1419134765 1005.3585
0291 1419138671 1006.7078
0292 1419142578 1007.5466
0293 1419146484 1003.1973
0294 1419150390 1006.9417
0295 1419154296 1008.9843
0296 1419158203 1016.8124
0297 1419162109 1016.3051
0298 1419166015 1017.3238
0299 1419169921 1014.7809
0300 1419173828 1014.3668
0301 1419177734 1020.1723
0302 1419181640 1019.4384
0303 1419185546 1020.0102
0304 1419189453 1020.7559
0305 1419193359 1025.7310
0306 1419197265 1026.1132
0307 1419201171 1027.1587
0308 1419205078 1035.8585
0309 1419208984 1032.9432
0310 1419212890 1034.5393
0311 1419216796 1032.3373
0312 1419220703 1034.4875
0313 1419224609 1032.7690
0314 1419228515 1038.9304
0315 1419232421 1038.7845
0316 1419236328 1040.8341
0317 1419240234 1038.1450
0318 1419244140 1044.1377
0319 1419248046 1046.5955
0320 1419251953 1043.2711
0321 1419255859 1042.5526
0322 1419259765 1043.5829
0323 1419263671 1041.0625
0324 1419267578 1048.0344
0325 1419271484 1048.8715
0326 1419275390 1045.9783
0327 1419279296 1043.7118
0328 1419283203 1052.9988
0329 1419287109 1053.4901
0330 1419291015 1049.1252
0331 1419294921 1053.3928
0332 1419298828 1052.6223
0333 1419302734 1053.6232
0334 1419306640 1045.7084
0335 1419310546 1055.7804
0336 1419314453 1051.5211
0337 1419318359 1053.8186
0338 1419322265 1054.8793
0339 1419326171 1052.4552
0340 1419330078 1054.6041
0341 1419333984 1054.3162
0342 1419337890 1056.7251
0343 1419341796 1052.3130
0344 1419345703 1058.4233
0345 1419349609 1060.0624
0346 1419353515 1056.7537
0347 1419357421 1056.6141
0348 1419361328 1055.4049
0349 1419365234 1056.8910
0350 1419369140 1059.8885
0351 1419373046 1055.8022
0352 1419376953 1057.7118
0353 1419380859 1057.0720
0354 1419384765 1062.3229
0355 1419388671 1057.9462
0356 1419392578 1054.6110
0357 1419396484 1061.0426
0358 1419400390 1057.2928
0359 1419404296 1059.6180
0360 1419408203 1055.7345
0361 1419412109 1059.9257
0362 1419416015 1058.8895
0363 1419419921 1060.5779
0364 1419423828 1054.7810
0365 1419427734 1054.4016
0366 1419431640 1056.8691
0367 1419435546 1059.7590
0368 1419439453 1054.2406
0369 1419443359 1059.5308
0370 1419447265 1057.0472
0371 1419451171 1060.0149
0372 1419455078 1065.5127
0373 1419458984 1061.4178
0374 1419462890 1060.7117
0375 1419466796 1061.6882
0376 1419470703 1058.3438
0377 1419474609 1063.9136
0378 1419478515 1062.3136
0379 1419482421 1061.0358
0380 1419486328 1063.7000
0381 1419490234 1064.6580
0382 1419494140 1065.7338
0383 1419498046 1062.1497
0384 1419501953 1063.2598
0385 1419505859 1063.5776
0386 1419509765 1063.9641
0387 1419513671 1060.8785
0388 1419517578 1064.9283
0389 1419521484 1066.4673
0390 1419525390 1067.1306
0391 1419529296 1068.2876
0392 1419533203 1059.5386
0393 1419537109 1065.0376
0394 1419541015 1066.3787
0395 1419544921 1069.0261
0396 1419548828 1069.5536
0397 1419552734 1068.1971
0398 1419556640 1066.6876
0399 1419560546 1068.3887
0400 1419564453 1065.4515
0401 1419568359 1063.5089
0402 1419572265 1066.1527
0403 1419576171 1066.0808
0404 1419580078 1065.0422
0405 1419583984 1064.9031
0406 1419587890 1064.1183
0407 1419591796 1064.3258
0408 1419595703 1060.9095
0409 1419599609 1066.1162
0410 1419603515 1061.6383
0411 1419607421 1066.1543
0412 1419611328 1067.1198
0413 1419615234 1064.4912
0414 1419619140 1063.4142
0415 1419623046 1062.0460
0416 1419626953 1060.6501
0417 1419630859 1065.3826
0418 1419634765 1063.9698
0419 1419638671 1060.8978
0420 1419642578 1061.0443
0421 1419646484 1061.0770
0422 1419650390 1056.8041
0423 1419654296 1062.3945
0424 1419658203 1057.2941
0425 1419662109 1062.4349
0426 1419666015 1060.4417
0427 1419669921 1062.3290
0428 1419673828 1054.1182
0429 1419677734 1058.9823
0430 1419681640 1056.2565
0431 1419685546 1055.0016
0432 1419689453 1053.7910
0433 1419693359 1056.0151
0434 1419697265 1053.8729
0435 1419701171 1059.2274
0436 1419705078 1054.5088
0437 1419708984 1054.3263
0438 1419712890 1048.8145
0439 1419716796 1050.1847
0440 1419720703 1046.3484
0441 1419724609 1048.3118
0442 1419728515 1046.7861
0443 1419732421 1050.7506
0444 1419736328 1044.0903
0445 1419740234 1044.8131
0446 1419744140 1039.5289
0447 1419748046 1041.9977
0448 1419751953 1043.3165
0449 1419755859 1038.3063
0450 1419759765 1040.2203
0451 1419763671 1039.0258
0452 1419767578 1034.7931
0453 1419771484 1032.8462
0454 1419775390 1041.0726
0455 1419779296 1036.4120
0456 1419783203 1036.8065
0457 1419787109 1035.8972
0458 1419791015 1033.2932
0459 1419794921 1033.6041
0460 1419798828 1029.0046
0461 1419802734 1031.4615
0462 1419806640 1030.4906
0463 1419810546 1022.5186
0464 1419814453 1025.7458
0465 1419818359 1025.8755
0466 1419822265 1021.8051
0467 1419826171 1020.8214
0468 1419830078 1024.0006
0469 1419833984 1022.6214
0470 1419837890 1025.3950
0471 1419841796 1025.0148
0472 1419845703 1024.3422
0473 1419849609 1022.0027
0474 1419853515 1020.8608
0475 1419857421 1023.0605
0476 1419861328 1019.9975
0477 1419865234 1015.5068
0478 1419869140 1013.9877
0479 1419873046 1015.9870
0480 1419876953 1018.8879
0481 1419880859 1017.7419
0482 1419884765 1013.6639
0483 1419888671 1009.0974
0484 1419892578 1013.1042
0485 1419896484 1010.5935
0486 1419900390 1008.7858
0487 1419904296 1012.4691
0488 1419908203 1008.1505
0489 1419912109 1006.1368
0490 1419916015 1008.6769
0491 1419919921 1006.6057
0492 1419923828 1003.1236
0493 1419927734 1005.1635
0494 1419931640 1004.1482
0495 1419935546 1008.3448
0496 1419939453 1002.2469
0497 1419943359 1005.0675
0498 1419947265 1005.8287
0499 1419951171 1007.0399
0500 1419955078 1003.9635
0501 1419958984 1004.2927
0502 1419962890 1001.4124
0503 1419966796 1006.1736
0504 1419970703 1003.8109
0505 1419974609 1002.6453
0506 1419978515 1003.1409
0507 1419982421 999.6081
0508 1419986328 1006.0864
0509 1419990234 1006.4456
0510 1419994140 1001.5164
0511 1419998046 1004.8882
0512 1420001953 1003.6242
0513 1420005859 1005.9106
0514 1420009765 1005.0660
0515 1420013671 1004.1686
0516 1420017578 1007.7692
0517 1420021484 1001.8537
0518 1420025390 1006.5898
0519 1420029296 1005.2722
0520 1420033203 1007.6896
0521 1420037109 1005.9812
0522 1420041015 1007.0400
0523 1420044921 1007.3268
0524 1420048828 1004.9380
0525 1420052734 1006.1926
0526 1420056640 1006.0126
0527 1420060546 1006.3229
0528 1420064453 1001.2872
0529 1420068359 1004.2793
0530 1420072265 1006.9013
0531 1420076171 1007.7974
0532 1420080078 1007.0817
0533 1420083984 1005.7762
0534 1420087890 1006.1489
0535 1420091796 1004.1681
0536 1420095703 1007.9723
0537 1420099609 1009.3170
0538 1420103515 1009.2683
0539 1420107421 1006.8228
0540 1420111328 1003.4758
0541 1420115234 1009.9092
0542 1420119140 1007.7741
0543 1420123046 1008.6747
0544 1420126953 1009.1816
0545 1420130859 1007.2289
0546 1420134765 1002.3374
0547 1420138671 1010.9662
0548 1420142578 1005.6679
0549 1420146484 1006.7380
0550 1420150390 1005.1977
0551 1420154296 1006.3022
0552 1420158203 1003.6316
0553 1420162109 1006.9557
0554 1420166015 1007.0524
0555 1420169921 1006.9698
0556 1420173828 1004.8170
0557 1420177734 1003.2593
0558 1420181640 1005.6459
0559 1420185546 1006.5721
0560 1420189453 1004.7443
0561 1420193359 1005.9180
0562 1420197265 1000.1612
0563 1420201171 1003.8109
0564 1420205078 1005.7361
0565 1420208984 1006.7895
0566 1420212890 1001.8098
0567 1420216796 1003.5098
0568 1420220703 1001.2271
0569 1420224609 1006.0469
0570 1420228515 1003.7717
0571 1420232421 1002.1651
0572 1420236328 1000.9963
0573 1420240234 999.5266
0574 1420244140 998.9348
0575 1420248046 997.4953
0576 1420251953 998.4782
0577 1420255859 1000.6319
0578 1420259765 997.3273
0579 1420263671 998.0657
0580 1420267578 1000.4220
0581 1420271484 997.9097
0582 1420275390 996.4149
0583 1420279296 993.0712
0584 1420283203 996.9071
0585 1420287109 992.8947
0586 1420291015 992.9836
0587 1420294921 992.0636
0588 1420298828 993.0858
0589 1420302734 993.1704
0590 1420306640 993.8872
0591 1420310546 993.6667
0592 1420314453 987.8126
0593 1420318359 992.0919
0594 1420322265 989.8846
0595 1420326171 993.1882
0596 1420330078 991.7982
0597 1420333984 986.5292
0598 1420337890 992.2456
0599 1420341796 988.1848
0600 1420345703 986.0290
0601 1420349609 990.9868
0602 1420353515 987.1590
0603 1420357421 986.6226
0604 1420361328 985.3174
0605 1420365234 980.5013
0606 1420369140 983.3250
0607 1420373046 986.1337
0608 1420376953 985.0449
0609 1420380859 982.7396
0610 1420384765 980.6877
0611 1420388671 979.4648
0612 1420392578 981.6443
0613 1420396484 975.4448
0614 1420400390 978.3829
0615 1420404296 979.7823
0616 1420408203 979.0436
0617 1420412109 975.1125
0618 1420416015 975.1082
0619 1420419921 977.6609
0620 1420423828 975.1013
0621 1420427734 975.8455
0622 1420431640 975.2519
0623 1420435546 973.5117
0624 1420439453 975.6104
0625 1420443359 973.1212
0626 1420447265 972.1766
0627 1420451171 969.9899
0628 1420455078 973.7191
0629 1420458984 972.8826
0630 1420462890 970.2189
0631 1420466796 969.6669
0632 1420470703 969.8719
0633 1420474609 967.4578
0634 1420478515 970.1284
0635 1420482421 972.0351
0636 1420486328 972.3349
0637 1420490234 972.2863
0638 1420494140 974.8421
0639 1420498046 969.8867
0640 1420501953 972.0674
0641 1420505859 970.8160
0642 1420509765 970.0666
0643 1420513671 970.7482
0644 1420517578 970.7004
0645 1420521484 974.5752
0646 1420525390 972.0690
0647 1420529296 970.0093
0648 1420533203 972.0651
0649 1420537109 975.1352
0650 1420541015 970.6404
0651 1420544921 969.7731
0652 1420548828 968.4547
0653 1420552734 970.8047
0654 1420556640 969.5597
0655 1420560546 973.1793
0656 1420564453 977.5798
0657 1420568359 975.1774
0658 1420572265 975.8246
0659 1420576171 974.8368
0660 1420580078 971.2708
0661 1420583984 973.5315
0662 1420587890 969.7690
0663 1420591796 968.0985
0664 1420595703 970.4156
0665 1420599609 974.3271
0666 1420603515 975.0093
0667 1420607421 973.6555
0668 1420611328 976.0443
0669 1420615234 975.1352
0670 1420619140 974.2308
0671 1420623046 973.0571
0672 1420626953 971.0198
0673 1420630859 970.5042
0674 1420634765 969.7115
0675 1420638671 970.8754
0676 1420642578 973.1201
0677 1420646484 971.9786
0678 1420650390 971.7371
0679 1420654296 972.2438
0680 1420658203 971.3725
0681 1420662109 969.8613
0682 1420666015 967.1476
0683 1420669921 971.9099
0684 1420673828 970.0577
0685 1420677734 971.7677
0686 1420681640 968.9137
0687 1420685546 969.5973
0688 1420689453 970.9644
0689 1420693359 973.0202
0690 1420697265 968.2802
0691 1420701171 971.1842
0692 1420705078 967.8244
0693 1420708984 967.5389
0694 1420712890 963.7736
0695 1420716796 964.5947
0696 1420720703 965.9081
0697 1420724609 965.0400
0698 1420728515 963.1031
0699 1420732421 964.9616
0700 1420736328 966.7944
0701 1420740234 963.0549
0702 1420744140 961.1354
0703 1420748046 960.1526
0704 1420751953 961.5170
0705 1420755859 959.9888
0706 1420759765 959.5551
0707 1420763671 960.1780
0708 1420767578 960.9656
0709 1420771484 962.9979
0710 1420775390 958.1729
0711 1420779296 956.4575
0712 1420783203 958.8557
0713 1420787109 961.1707
0714 1420791015 956.2146
0715 1420794921 957.2260
0716 1420798828 956.7542
0717 1420802734 952.8285
0718 1420806640 954.1896
0719 1420810546 954.5267
0720 1420814453 957.7838
0721 1420818359 957.9737
0722 1420822265 956.2790
0723 1420826171 953.0740
0724 1420830078 949.8458
0725 1420833984 953.7482
0726 1420837890 950.3654
0727 1420841796 952.6246
0728 1420845703 954.5512
0729 1420849609 949.2914
0730 1420853515 949.9985
0731 1420857421 953.5009
0732 1420861328 950.9633
0733 1420865234 955.9283
0734 1420869140 950.6927
0735 1420873046 949.8904
